#  
#  ARTDECO flux output for each k-dis band 
#  
# number of wavelengths
  38
# number of solar zenith angles
   1
# number of sampled altitudes 
  50
##################
# Wavelength (microns) 
       8.000000000
# Solar zenithal angle (deg) 
60.000
#     ALTITUDE           PRESSION           FLUX DW          FLUX UP           FLUX DIR
#       (KM)               (hPa)             (W.M-2)          (W.M-2)          (W.M-2) 
     120.000000000       0.000040000       0.037795480       0.970798374       0.037795480
     115.000000000       0.000060000       0.037795480       0.970798374       0.037795480
     110.000000000       0.000110000       0.037795480       0.970798374       0.037795480
     105.000000000       0.000200000       0.037795480       0.970798374       0.037795480
     100.000000000       0.000410000       0.037795480       0.970798374       0.037795480
      95.000000000       0.000880000       0.037795480       0.970798374       0.037795480
      90.000000000       0.001980000       0.037795480       0.970798374       0.037795480
      85.000000000       0.004560000       0.037795480       0.970798374       0.037795480
      80.000000000       0.010300000       0.037795480       0.970798374       0.037795480
      75.000000000       0.022200000       0.037796182       0.970799502       0.037795395
      70.000000000       0.047000000       0.037804245       0.970805328       0.037794748
      65.000000000       0.095000000       0.037851746       0.970812878       0.037792105
      60.000000000       0.188000000       0.038003451       0.970788006       0.037785965
      55.000000000       0.362000000       0.038396231       0.970632593       0.037773958
      50.000000000       0.683000000       0.039272476       0.970135854       0.037751626
      47.500000000       0.940000000       0.039950157       0.969676721       0.037734953
      45.000000000       1.290000000       0.040720642       0.969107744       0.037713205
      42.500000000       1.800000000       0.041470606       0.968515038       0.037685120
      40.000000000       2.530000000       0.042141337       0.967935106       0.037649473
      37.500000000       3.600000000       0.042682053       0.967402508       0.037605411
      35.000000000       5.180000000       0.043050550       0.966967088       0.037551897
      32.500000000       7.560000000       0.043228839       0.966714643       0.037486650
      30.000000000      11.100000000       0.043343982       0.966700335       0.037404662
      27.500000000      16.460000000       0.043611779       0.966911854       0.037298813
      25.000000000      24.400000000       0.044301099       0.967466431       0.037147741
      24.000000000      28.600000000       0.044766161       0.967812623       0.037067600
      23.000000000      33.400000000       0.045375830       0.968259372       0.036970961
      22.000000000      39.100000000       0.046157972       0.968839294       0.036853102
      21.000000000      45.800000000       0.047135214       0.969590101       0.036709654
      20.000000000      53.700000000       0.048331325       0.970561233       0.036536017
      19.000000000      62.800000000       0.049785076       0.971829440       0.036325510
      18.000000000      73.600000000       0.051561294       0.973444183       0.036073509
      17.000000000      86.100000000       0.053734648       0.975448888       0.035775594
      16.000000000     100.700000000       0.056369750       0.977962723       0.035424886
      15.000000000     117.800000000       0.059507304       0.981117508       0.035019714
      14.000000000     137.800000000       0.063194947       0.985095378       0.034559102
      13.000000000     161.100000000       0.067516498       0.990183545       0.034038820
      12.000000000     188.200000000       0.072520432       0.996744079       0.033460711
      11.000000000     219.900000000       0.078278639       1.005344832       0.032824410
      10.000000000     256.800000000       0.084961482       1.017044904       0.032118483
       9.000000000     299.300000000       0.095081283       1.031133417       0.031323457
       8.000000000     347.300000000       0.335579154       1.453511534       0.004399821
       7.000000000     401.600000000       0.375514492       1.544212864       0.003461154
       6.000000000     462.700000000       0.403754177       1.585808567       0.003301688
       5.000000000     531.300000000       0.450694419       1.633804872       0.003105920
       4.000000000     608.100000000       0.524260677       1.686139438       0.002860237
       3.000000000     693.800000000       0.639112176       1.737063566       0.002546576
       2.000000000     789.700000000       0.791738111       1.777685484       0.002181700
       1.000000000     897.300000000       0.972341485       1.799666401       0.001797213
       0.000000000    1018.000000000       1.952710423       1.976250212       0.000000000
# Wavelength (microns) 
       8.130081000
# Solar zenithal angle (deg) 
60.000
#     ALTITUDE           PRESSION           FLUX DW          FLUX UP           FLUX DIR
#       (KM)               (hPa)             (W.M-2)          (W.M-2)          (W.M-2) 
     120.000000000       0.000040000       0.036621239       1.166895445       0.036621239
     115.000000000       0.000060000       0.036621239       1.166895445       0.036621239
     110.000000000       0.000110000       0.036621239       1.166895445       0.036621239
     105.000000000       0.000200000       0.036621239       1.166895445       0.036621239
     100.000000000       0.000410000       0.036621239       1.166895445       0.036621239
      95.000000000       0.000880000       0.036621239       1.166895445       0.036621239
      90.000000000       0.001980000       0.036621239       1.166895445       0.036621239
      85.000000000       0.004560000       0.036621239       1.166895445       0.036621239
      80.000000000       0.010300000       0.036621239       1.166895445       0.036621239
      75.000000000       0.022200000       0.036621239       1.166895445       0.036621239
      70.000000000       0.047000000       0.036623008       1.166895742       0.036621113
      65.000000000       0.095000000       0.036633316       1.166893843       0.036620601
      60.000000000       0.188000000       0.036668235       1.166879627       0.036619339
      55.000000000       0.362000000       0.036765514       1.166825504       0.036616693
      50.000000000       0.683000000       0.037000490       1.166674906       0.036611431
      47.500000000       0.940000000       0.037194345       1.166545438       0.036607321
      45.000000000       1.290000000       0.037428435       1.166394833       0.036601860
      42.500000000       1.800000000       0.037683100       1.166249968       0.036594596
      40.000000000       2.530000000       0.037946582       1.166126635       0.036585096
      37.500000000       3.600000000       0.038213523       1.166039216       0.036572650
      35.000000000       5.180000000       0.038477124       1.166007655       0.036556289
      32.500000000       7.560000000       0.038730311       1.166059465       0.036534648
      30.000000000      11.100000000       0.038995875       1.166212926       0.036505141
      27.500000000      16.460000000       0.039321751       1.166488092       0.036463720
      25.000000000      24.400000000       0.039755794       1.166937819       0.036404842
      24.000000000      28.600000000       0.039973477       1.167181001       0.036375033
      23.000000000      33.400000000       0.040224096       1.167472329       0.036340729
      22.000000000      39.100000000       0.040512207       1.167822248       0.036301341
      21.000000000      45.800000000       0.040843511       1.168244041       0.036256134
      20.000000000      53.700000000       0.041224918       1.168755243       0.036204248
      19.000000000      62.800000000       0.041662790       1.169375461       0.036144932
      18.000000000      73.600000000       0.042174924       1.170124107       0.036077041
      17.000000000      86.100000000       0.042784342       1.171023180       0.035999284
      16.000000000     100.700000000       0.043508027       1.172106935       0.035910479
      15.000000000     117.800000000       0.044366357       1.173418144       0.035809220
      14.000000000     137.800000000       0.045383910       1.175011512       0.035693874
      13.000000000     161.100000000       0.046591116       1.176957742       0.035562480
      12.000000000     188.200000000       0.048024081       1.179344513       0.035412699
      11.000000000     219.900000000       0.049734491       1.182294018       0.035240919
      10.000000000     256.800000000       0.051825638       1.186006176       0.035038838
       9.000000000     299.300000000       0.055022284       1.190373374       0.034787415
       8.000000000     347.300000000       0.334633657       1.695310262       0.004988972
       7.000000000     401.600000000       0.368841440       1.779746265       0.004016545
       6.000000000     462.700000000       0.379537831       1.795955834       0.003937480
       5.000000000     531.300000000       0.399999935       1.815882297       0.003830315
       4.000000000     608.100000000       0.435930795       1.838958864       0.003684833
       3.000000000     693.800000000       0.499108925       1.863172920       0.003478803
       2.000000000     789.700000000       0.592211081       1.882853198       0.003216871
       1.000000000     897.300000000       0.713406452       1.892148401       0.002911271
       0.000000000    1018.000000000       2.066521270       2.093107537       0.000000000
# Wavelength (microns) 
       8.264462000
# Solar zenithal angle (deg) 
60.000
#     ALTITUDE           PRESSION           FLUX DW          FLUX UP           FLUX DIR
#       (KM)               (hPa)             (W.M-2)          (W.M-2)          (W.M-2) 
     120.000000000       0.000040000       0.035500535       1.283102132       0.035500535
     115.000000000       0.000060000       0.035500535       1.283102132       0.035500535
     110.000000000       0.000110000       0.035500535       1.283102132       0.035500535
     105.000000000       0.000200000       0.035500535       1.283102132       0.035500535
     100.000000000       0.000410000       0.035500535       1.283102132       0.035500535
      95.000000000       0.000880000       0.035500535       1.283102132       0.035500535
      90.000000000       0.001980000       0.035500535       1.283102132       0.035500535
      85.000000000       0.004560000       0.035500535       1.283102132       0.035500535
      80.000000000       0.010300000       0.035500535       1.283102132       0.035500535
      75.000000000       0.022200000       0.035500535       1.283102132       0.035500535
      70.000000000       0.047000000       0.035500535       1.283102132       0.035500535
      65.000000000       0.095000000       0.035503131       1.283102880       0.035500419
      60.000000000       0.188000000       0.035512425       1.283102337       0.035500116
      55.000000000       0.362000000       0.035539932       1.283094385       0.035499438
      50.000000000       0.683000000       0.035614309       1.283063735       0.035497924
      47.500000000       0.940000000       0.035678606       1.283035211       0.035496687
      45.000000000       1.290000000       0.035758184       1.283004112       0.035495012
      42.500000000       1.800000000       0.035844809       1.282981400       0.035492806
      40.000000000       2.530000000       0.035936338       1.282973970       0.035489908
      37.500000000       3.600000000       0.036030004       1.282989107       0.035486162
      35.000000000       5.180000000       0.036123218       1.283035281       0.035481366
      32.500000000       7.560000000       0.036214446       1.283122764       0.035475223
      30.000000000      11.100000000       0.036312429       1.283261215       0.035467101
      27.500000000      16.460000000       0.036434087       1.283464237       0.035455951
      25.000000000      24.400000000       0.036599619       1.283762316       0.035440051
      24.000000000      28.600000000       0.036681311       1.283911086       0.035432146
      23.000000000      33.400000000       0.036774521       1.284081058       0.035423120
      22.000000000      39.100000000       0.036882613       1.284278744       0.035412646
      21.000000000      45.800000000       0.037006023       1.284504922       0.035400677
      20.000000000      53.700000000       0.037146206       1.284762421       0.035387065
      19.000000000      62.800000000       0.037304262       1.285053484       0.035371699
      18.000000000      73.600000000       0.037485631       1.285383079       0.035354226
      17.000000000      86.100000000       0.037697921       1.285757883       0.035334167
      16.000000000     100.700000000       0.037947359       1.286185976       0.035311045
      15.000000000     117.800000000       0.038242183       1.286678154       0.035284225
      14.000000000     137.800000000       0.038592664       1.287247807       0.035252928
      13.000000000     161.100000000       0.039010168       1.287908985       0.035216319
      12.000000000     188.200000000       0.039507504       1.288675825       0.035173478
      11.000000000     219.900000000       0.040107805       1.289572091       0.035122648
      10.000000000     256.800000000       0.040887420       1.290669848       0.035057689
       9.000000000     299.300000000       0.042163375       1.292018336       0.034964317
       8.000000000     347.300000000       0.350371504       1.835059599       0.005036321
       7.000000000     401.600000000       0.385185795       1.918885407       0.004078374
       6.000000000     462.700000000       0.392266122       1.927353497       0.004022145
       5.000000000     531.300000000       0.407843501       1.939673911       0.003937420
       4.000000000     608.100000000       0.436929931       1.955924728       0.003821467
       3.000000000     693.800000000       0.490365343       1.975181989       0.003654750
       2.000000000     789.700000000       0.570991044       1.991984832       0.003435645
       1.000000000     897.300000000       0.678295029       2.001173235       0.003175253
       0.000000000    1018.000000000       2.186911155       2.215205415       0.000000000
# Wavelength (microns) 
       8.403361000
# Solar zenithal angle (deg) 
60.000
#     ALTITUDE           PRESSION           FLUX DW          FLUX UP           FLUX DIR
#       (KM)               (hPa)             (W.M-2)          (W.M-2)          (W.M-2) 
     120.000000000       0.000040000       0.034364805       1.364057029       0.034364805
     115.000000000       0.000060000       0.034364805       1.364057029       0.034364805
     110.000000000       0.000110000       0.034364805       1.364057029       0.034364805
     105.000000000       0.000200000       0.034364805       1.364057029       0.034364805
     100.000000000       0.000410000       0.034364805       1.364057029       0.034364805
      95.000000000       0.000880000       0.034364805       1.364057029       0.034364805
      90.000000000       0.001980000       0.034364805       1.364057029       0.034364805
      85.000000000       0.004560000       0.034364805       1.364057029       0.034364805
      80.000000000       0.010300000       0.034364805       1.364057029       0.034364805
      75.000000000       0.022200000       0.034364805       1.364057029       0.034364805
      70.000000000       0.047000000       0.034364805       1.364057029       0.034364805
      65.000000000       0.095000000       0.034368264       1.364057941       0.034364667
      60.000000000       0.188000000       0.034379345       1.364057153       0.034364340
      55.000000000       0.362000000       0.034413562       1.364047243       0.034363575
      50.000000000       0.683000000       0.034503573       1.364010304       0.034361907
      47.500000000       0.940000000       0.034585834       1.363974085       0.034360464
      45.000000000       1.290000000       0.034697660       1.363930792       0.034358322
      42.500000000       1.800000000       0.034836177       1.363894858       0.034355124
      40.000000000       2.530000000       0.035003762       1.363881319       0.034350331
      37.500000000       3.600000000       0.035197832       1.363911816       0.034343351
      35.000000000       5.180000000       0.035412958       1.364015499       0.034333446
      32.500000000       7.560000000       0.035644982       1.364231352       0.034319534
      30.000000000      11.100000000       0.035911346       1.364595964       0.034299951
      27.500000000      16.460000000       0.036251453       1.365146096       0.034272342
      25.000000000      24.400000000       0.036711719       1.365950736       0.034233172
      24.000000000      28.600000000       0.036939436       1.366354642       0.034213636
      23.000000000      33.400000000       0.037195439       1.366810101       0.034191644
      22.000000000      39.100000000       0.037482583       1.367322738       0.034166941
      21.000000000      45.800000000       0.037804555       1.367899837       0.034139195
      20.000000000      53.700000000       0.038161065       1.368541494       0.034108415
      19.000000000      62.800000000       0.038549991       1.369244575       0.034074764
      18.000000000      73.600000000       0.038979497       1.370012419       0.034037902
      17.000000000      86.100000000       0.039462732       1.370853845       0.033997179
      16.000000000     100.700000000       0.040010937       1.371784631       0.033951801
      15.000000000     117.800000000       0.040639738       1.372827053       0.033900658
      14.000000000     137.800000000       0.041369975       1.374010841       0.033842284
      13.000000000     161.100000000       0.042222615       1.375364255       0.033775272
      12.000000000     188.200000000       0.043211323       1.376901733       0.033698835
      11.000000000     219.900000000       0.044359350       1.378647207       0.033611492
      10.000000000     256.800000000       0.045746897       1.380680146       0.033507556
       9.000000000     299.300000000       0.047731975       1.382914364       0.033377231
       8.000000000     347.300000000       0.377181038       1.954844374       0.004795064
       7.000000000     401.600000000       0.414507676       2.043730999       0.003880444
       6.000000000     462.700000000       0.421657868       2.052728085       0.003829955
       5.000000000     531.300000000       0.436384351       2.064660419       0.003758741
       4.000000000     608.100000000       0.462868713       2.079527538       0.003664263
       3.000000000     693.800000000       0.510317549       2.096487916       0.003531507
       2.000000000     789.700000000       0.581686986       2.110839327       0.003355430
       1.000000000     897.300000000       0.678663905       2.118276597       0.003137961
       0.000000000    1018.000000000       2.312453078       2.342546380       0.000000000
# Wavelength (microns) 
       8.547009000
# Solar zenithal angle (deg) 
60.000
#     ALTITUDE           PRESSION           FLUX DW          FLUX UP           FLUX DIR
#       (KM)               (hPa)             (W.M-2)          (W.M-2)          (W.M-2) 
     120.000000000       0.000040000       0.033267955       1.446583415       0.033267955
     115.000000000       0.000060000       0.033267955       1.446583415       0.033267955
     110.000000000       0.000110000       0.033267955       1.446583415       0.033267955
     105.000000000       0.000200000       0.033267955       1.446583415       0.033267955
     100.000000000       0.000410000       0.033267955       1.446583415       0.033267955
      95.000000000       0.000880000       0.033267955       1.446583415       0.033267955
      90.000000000       0.001980000       0.033267955       1.446583415       0.033267955
      85.000000000       0.004560000       0.033267955       1.446583415       0.033267955
      80.000000000       0.010300000       0.033267955       1.446583415       0.033267955
      75.000000000       0.022200000       0.033267955       1.446583415       0.033267955
      70.000000000       0.047000000       0.033267955       1.446583415       0.033267955
      65.000000000       0.095000000       0.033271449       1.446584280       0.033267830
      60.000000000       0.188000000       0.033282331       1.446583427       0.033267540
      55.000000000       0.362000000       0.033321679       1.446572087       0.033266740
      50.000000000       0.683000000       0.033434571       1.446526146       0.033264834
      47.500000000       0.940000000       0.033545907       1.446477532       0.033263052
      45.000000000       1.290000000       0.033709994       1.446414443       0.033260189
      42.500000000       1.800000000       0.033934007       1.446356333       0.033255492
      40.000000000       2.530000000       0.034230402       1.446331025       0.033247822
      37.500000000       3.600000000       0.034595379       1.446384208       0.033235991
      35.000000000       5.180000000       0.035023336       1.446581798       0.033218299
      32.500000000       7.560000000       0.035506790       1.447015688       0.033192366
      30.000000000      11.100000000       0.036072971       1.447766021       0.033155203
      27.500000000      16.460000000       0.036800936       1.448912360       0.033102432
      25.000000000      24.400000000       0.037771675       1.450576126       0.033028553
      24.000000000      28.600000000       0.038241068       1.451396926       0.032992494
      23.000000000      33.400000000       0.038756400       1.452303860       0.032952827
      22.000000000      39.100000000       0.039319619       1.453301744       0.032909385
      21.000000000      45.800000000       0.039933474       1.454396945       0.032861939
      20.000000000      53.700000000       0.040586591       1.455569856       0.032811356
      19.000000000      62.800000000       0.041261315       1.456788394       0.032759008
      18.000000000      73.600000000       0.041963008       1.458041562       0.032705047
      17.000000000      86.100000000       0.042707231       1.459334816       0.032648901
      16.000000000     100.700000000       0.043507564       1.460688782       0.032589648
      15.000000000     117.800000000       0.044386684       1.462138490       0.032525749
      14.000000000     137.800000000       0.045379076       1.463736709       0.032454895
      13.000000000     161.100000000       0.046514534       1.465525281       0.032375231
      12.000000000     188.200000000       0.047791118       1.467492219       0.032287182
      11.000000000     219.900000000       0.049214542       1.469632844       0.032190623
      10.000000000     256.800000000       0.050869908       1.472029814       0.032080109
       9.000000000     299.300000000       0.053133073       1.474546950       0.031947520
       8.000000000     347.300000000       0.405797138       2.074501861       0.004543815
       7.000000000     401.600000000       0.445603249       2.167376177       0.003673777
       6.000000000     462.700000000       0.452894834       2.176485332       0.003628726
       5.000000000     531.300000000       0.467394038       2.188439347       0.003567336
       4.000000000     608.100000000       0.493404831       2.203277654       0.003482651
       3.000000000     693.800000000       0.541651914       2.220289173       0.003355525
       2.000000000     789.700000000       0.615881261       2.234894145       0.003188771
       1.000000000     897.300000000       0.714986367       2.242428754       0.002992369
       0.000000000    1018.000000000       2.443411812       2.475157885       0.000000000
# Wavelength (microns) 
       8.695652000
# Solar zenithal angle (deg) 
60.000
#     ALTITUDE           PRESSION           FLUX DW          FLUX UP           FLUX DIR
#       (KM)               (hPa)             (W.M-2)          (W.M-2)          (W.M-2) 
     120.000000000       0.000040000       0.032171966       1.544812363       0.032171966
     115.000000000       0.000060000       0.032171966       1.544812363       0.032171966
     110.000000000       0.000110000       0.032171966       1.544812363       0.032171966
     105.000000000       0.000200000       0.032171966       1.544812363       0.032171966
     100.000000000       0.000410000       0.032171966       1.544812363       0.032171966
      95.000000000       0.000880000       0.032171966       1.544812363       0.032171966
      90.000000000       0.001980000       0.032171966       1.544812363       0.032171966
      85.000000000       0.004560000       0.032171966       1.544812363       0.032171966
      80.000000000       0.010300000       0.032171966       1.544812363       0.032171966
      75.000000000       0.022200000       0.032171966       1.544812363       0.032171966
      70.000000000       0.047000000       0.032171966       1.544812363       0.032171966
      65.000000000       0.095000000       0.032176205       1.544813416       0.032171829
      60.000000000       0.188000000       0.032193649       1.544812277       0.032171410
      55.000000000       0.362000000       0.032248544       1.544796809       0.032170396
      50.000000000       0.683000000       0.032412627       1.544730954       0.032167871
      47.500000000       0.940000000       0.032578854       1.544659091       0.032165444
      45.000000000       1.290000000       0.032828570       1.544563646       0.032161473
      42.500000000       1.800000000       0.033174760       1.544473303       0.032154880
      40.000000000       2.530000000       0.033636652       1.544430536       0.032144062
      37.500000000       3.600000000       0.034221863       1.544507659       0.032126953
      35.000000000       5.180000000       0.034923475       1.544814233       0.032100880
      32.500000000       7.560000000       0.035749777       1.545524485       0.032061147
      30.000000000      11.100000000       0.036751363       1.546805233       0.032002260
      27.500000000      16.460000000       0.038061681       1.548813553       0.031917039
      25.000000000      24.400000000       0.039800425       1.551746802       0.031797984
      24.000000000      28.600000000       0.040630178       1.553187675       0.031740512
      23.000000000      33.400000000       0.041529983       1.554769100       0.031677992
      22.000000000      39.100000000       0.042500119       1.556495328       0.031610378
      21.000000000      45.800000000       0.043541610       1.558371930       0.031537574
      20.000000000      53.700000000       0.044626410       1.560349824       0.031461545
      19.000000000      62.800000000       0.045713997       1.562352637       0.031385180
      18.000000000      73.600000000       0.046806430       1.564347580       0.031309197
      17.000000000      86.100000000       0.047923804       1.566335556       0.031233043
      16.000000000     100.700000000       0.049083571       1.568344897       0.031155579
      15.000000000     117.800000000       0.050318797       1.570430549       0.031074685
      14.000000000     137.800000000       0.051683825       1.572681441       0.030986967
      13.000000000     161.100000000       0.053220907       1.575161254       0.030889987
      12.000000000     188.200000000       0.054902633       1.577816433       0.030785785
      11.000000000     219.900000000       0.056697012       1.580589971       0.030676563
      10.000000000     256.800000000       0.058630373       1.583519114       0.030560899
       9.000000000     299.300000000       0.061014446       1.586406651       0.030436123
       8.000000000     347.300000000       0.436793212       2.226957303       0.004372766
       7.000000000     401.600000000       0.478127366       2.325500696       0.003547590
       6.000000000     462.700000000       0.482130448       2.332704295       0.003522824
       5.000000000     531.300000000       0.489768325       2.340644411       0.003488773
       4.000000000     608.100000000       0.503880062       2.349189964       0.003441027
       3.000000000     693.800000000       0.530433964       2.357802642       0.003371250
       2.000000000     789.700000000       0.573756081       2.364611403       0.003276230
       1.000000000     897.300000000       0.635973474       2.366426052       0.003154929
       0.000000000    1018.000000000       2.578615856       2.613043773       0.000000000
# Wavelength (microns) 
       8.849558000
# Solar zenithal angle (deg) 
60.000
#     ALTITUDE           PRESSION           FLUX DW          FLUX UP           FLUX DIR
#       (KM)               (hPa)             (W.M-2)          (W.M-2)          (W.M-2) 
     120.000000000       0.000040000       0.031088609       1.631508260       0.031088609
     115.000000000       0.000060000       0.031088609       1.631508260       0.031088609
     110.000000000       0.000110000       0.031088609       1.631508260       0.031088609
     105.000000000       0.000200000       0.031088609       1.631508260       0.031088609
     100.000000000       0.000410000       0.031088609       1.631508260       0.031088609
      95.000000000       0.000880000       0.031088609       1.631508260       0.031088609
      90.000000000       0.001980000       0.031088609       1.631508260       0.031088609
      85.000000000       0.004560000       0.031088609       1.631508260       0.031088609
      80.000000000       0.010300000       0.031088609       1.631508260       0.031088609
      75.000000000       0.022200000       0.031088609       1.631508260       0.031088609
      70.000000000       0.047000000       0.031088609       1.631508260       0.031088609
      65.000000000       0.095000000       0.031092006       1.631508911       0.031088511
      60.000000000       0.188000000       0.031109450       1.631507036       0.031088131
      55.000000000       0.362000000       0.031183806       1.631483931       0.031086883
      50.000000000       0.683000000       0.031468198       1.631363814       0.031082892
      47.500000000       0.940000000       0.031788167       1.631218961       0.031078627
      45.000000000       1.290000000       0.032306564       1.631008280       0.031071110
      42.500000000       1.800000000       0.033080324       1.630781058       0.031057699
      40.000000000       2.530000000       0.034180926       1.630630731       0.031034280
      37.500000000       3.600000000       0.035584407       1.630731695       0.030997001
      35.000000000       5.180000000       0.037226786       1.631323373       0.030941417
      32.500000000       7.560000000       0.039055182       1.632731984       0.030860835
      30.000000000      11.100000000       0.041115564       1.635198211       0.030748735
      27.500000000      16.460000000       0.043690104       1.639013692       0.030592300
      25.000000000      24.400000000       0.047007859       1.644609167       0.030378284
      24.000000000      28.600000000       0.048549102       1.647349626       0.030277283
      23.000000000      33.400000000       0.050180361       1.650329793       0.030169835
      22.000000000      39.100000000       0.051891971       1.653545115       0.030056559
      21.000000000      45.800000000       0.053674178       1.656989329       0.029938102
      20.000000000      53.700000000       0.055451680       1.660521701       0.029819529
      19.000000000      62.800000000       0.057123057       1.663929234       0.029707750
      18.000000000      73.600000000       0.058673315       1.667102224       0.029605183
      17.000000000      86.100000000       0.060119553       1.670009870       0.029511741
      16.000000000     100.700000000       0.061474743       1.672676074       0.029426292
      15.000000000     117.800000000       0.062780133       1.675181976       0.029345991
      14.000000000     137.800000000       0.064118154       1.677684203       0.029265687
      13.000000000     161.100000000       0.065539303       1.680270633       0.029182462
      12.000000000     188.200000000       0.066933482       1.682734246       0.029102804
      11.000000000     219.900000000       0.068172332       1.684845511       0.029033801
      10.000000000     256.800000000       0.069258008       1.686597502       0.028974949
       9.000000000     299.300000000       0.070412267       1.687980126       0.028921052
       8.000000000     347.300000000       0.469150821       2.355239025       0.004249947
       7.000000000     401.600000000       0.512174041       2.454448672       0.003463001
       6.000000000     462.700000000       0.516074883       2.459046125       0.003442011
       5.000000000     531.300000000       0.525331630       2.465951759       0.003406619
       4.000000000     608.100000000       0.543812820       2.475463547       0.003354821
       3.000000000     693.800000000       0.579587251       2.487306011       0.003277065
       2.000000000     789.700000000       0.636023512       2.498100566       0.003170521
       1.000000000     897.300000000       0.714171541       2.503743052       0.003037680
       0.000000000    1018.000000000       2.720428533       2.756194919       0.000000000
# Wavelength (microns) 
       9.009009000
# Solar zenithal angle (deg) 
60.000
#     ALTITUDE           PRESSION           FLUX DW          FLUX UP           FLUX DIR
#       (KM)               (hPa)             (W.M-2)          (W.M-2)          (W.M-2) 
     120.000000000       0.000040000       0.030033161       1.760301860       0.030033161
     115.000000000       0.000060000       0.030033161       1.760301860       0.030033161
     110.000000000       0.000110000       0.030033161       1.760301860       0.030033161
     105.000000000       0.000200000       0.030033161       1.760301860       0.030033161
     100.000000000       0.000410000       0.030033161       1.760301860       0.030033161
      95.000000000       0.000880000       0.030033161       1.760301860       0.030033161
      90.000000000       0.001980000       0.030033161       1.760301860       0.030033161
      85.000000000       0.004560000       0.030033161       1.760301860       0.030033161
      80.000000000       0.010300000       0.030033161       1.760301860       0.030033161
      75.000000000       0.022200000       0.030033161       1.760301860       0.030033161
      70.000000000       0.047000000       0.030033161       1.760301860       0.030033161
      65.000000000       0.095000000       0.030033161       1.760301860       0.030033161
      60.000000000       0.188000000       0.030046922       1.760300831       0.030032890
      55.000000000       0.362000000       0.030104984       1.760284425       0.030032004
      50.000000000       0.683000000       0.030316185       1.760200244       0.030029300
      47.500000000       0.940000000       0.030553998       1.760098193       0.030026406
      45.000000000       1.290000000       0.030943805       1.759949609       0.030021253
      42.500000000       1.800000000       0.031535942       1.759792493       0.030011935
      40.000000000       2.530000000       0.032405048       1.759701860       0.029995226
      37.500000000       3.600000000       0.033528359       1.759822482       0.029968432
      35.000000000       5.180000000       0.034862914       1.760351451       0.029928191
      32.500000000       7.560000000       0.036389165       1.761571811       0.029868883
      30.000000000      11.100000000       0.038147456       1.763694832       0.029785430
      27.500000000      16.460000000       0.040352214       1.766933329       0.029669419
      25.000000000      24.400000000       0.043208234       1.771631306       0.029510693
      24.000000000      28.600000000       0.044543990       1.773923671       0.029435417
      23.000000000      33.400000000       0.045961903       1.776407919       0.029355156
      22.000000000      39.100000000       0.047453770       1.779077689       0.029270352
      21.000000000      45.800000000       0.049011140       1.781925127       0.029181474
      20.000000000      53.700000000       0.050567014       1.784830503       0.029092368
      19.000000000      62.800000000       0.052030083       1.787615807       0.029008347
      18.000000000      73.600000000       0.053382163       1.790189257       0.028931410
      17.000000000      86.100000000       0.054634004       1.792525253       0.028861646
      16.000000000     100.700000000       0.055795807       1.794644638       0.028798272
      15.000000000     117.800000000       0.056902509       1.796614208       0.028739198
      14.000000000     137.800000000       0.058025149       1.798560844       0.028680560
      13.000000000     161.100000000       0.059206094       1.800553919       0.028620206
      12.000000000     188.200000000       0.060345156       1.802423601       0.028563234
      11.000000000     219.900000000       0.061323946       1.803982024       0.028515331
      10.000000000     256.800000000       0.062126101       1.805211915       0.028476952
       9.000000000     299.300000000       0.062867940       1.806093899       0.028446061
       8.000000000     347.300000000       0.495225478       2.511841964       0.004266294
       7.000000000     401.600000000       0.540569768       2.615269616       0.003489911
       6.000000000     462.700000000       0.542171910       2.617530333       0.003481532
       5.000000000     531.300000000       0.546350246       2.621069660       0.003465479
       4.000000000     608.100000000       0.555917346       2.626181165       0.003437400
       3.000000000     693.800000000       0.577227682       2.632820139       0.003388890
       2.000000000     789.700000000       0.615153528       2.638988133       0.003316740
       1.000000000     897.300000000       0.672430272       2.641213268       0.003219232
       0.000000000    1018.000000000       2.866204898       2.904491950       0.000000000
# Wavelength (microns) 
       9.174312000
# Solar zenithal angle (deg) 
60.000
#     ALTITUDE           PRESSION           FLUX DW          FLUX UP           FLUX DIR
#       (KM)               (hPa)             (W.M-2)          (W.M-2)          (W.M-2) 
     120.000000000       0.000040000       0.028997508       1.869335643       0.028997508
     115.000000000       0.000060000       0.028997508       1.869335643       0.028997508
     110.000000000       0.000110000       0.028997508       1.869335643       0.028997508
     105.000000000       0.000200000       0.028997508       1.869335643       0.028997508
     100.000000000       0.000410000       0.028997508       1.869335643       0.028997508
      95.000000000       0.000880000       0.028997508       1.869335643       0.028997508
      90.000000000       0.001980000       0.028997508       1.869335643       0.028997508
      85.000000000       0.004560000       0.028997508       1.869335643       0.028997508
      80.000000000       0.010300000       0.028997508       1.869335643       0.028997508
      75.000000000       0.022200000       0.028997508       1.869335643       0.028997508
      70.000000000       0.047000000       0.028997508       1.869335643       0.028997508
      65.000000000       0.095000000       0.028998650       1.869335891       0.028997481
      60.000000000       0.188000000       0.029018730       1.869334677       0.028997123
      55.000000000       0.362000000       0.029103190       1.869312041       0.028995950
      50.000000000       0.683000000       0.029397592       1.869198501       0.028992510
      47.500000000       0.940000000       0.029712860       1.869066866       0.028989004
      45.000000000       1.290000000       0.030198508       1.868886647       0.028983147
      42.500000000       1.800000000       0.030891305       1.868708213       0.028973233
      40.000000000       2.530000000       0.031857775       1.868611610       0.028956399
      37.500000000       3.600000000       0.033083566       1.868742954       0.028930018
      35.000000000       5.180000000       0.034546931       1.869311875       0.028890390
      32.500000000       7.560000000       0.036255227       1.870644437       0.028831076
      30.000000000      11.100000000       0.038280549       1.873023463       0.028745556
      27.500000000      16.460000000       0.040813016       1.876638720       0.028627275
      25.000000000      24.400000000       0.044061871       1.881827781       0.028467265
      24.000000000      28.600000000       0.045581339       1.884357646       0.028391441
      23.000000000      33.400000000       0.047197257       1.887102211       0.028310487
      22.000000000      39.100000000       0.048901701       1.890055887       0.028224793
      21.000000000      45.800000000       0.050686109       1.893210724       0.028134793
      20.000000000      53.700000000       0.052475590       1.896436180       0.028044297
      19.000000000      62.800000000       0.054167581       1.899538262       0.027958588
      18.000000000      73.600000000       0.055741697       1.902417181       0.027879638
      17.000000000      86.100000000       0.057210240       1.905045076       0.027807527
      16.000000000     100.700000000       0.058585081       1.907444794       0.027741473
      15.000000000     117.800000000       0.059906143       1.909689586       0.027679375
      14.000000000     137.800000000       0.061255134       1.911918900       0.027617325
      13.000000000     161.100000000       0.062681498       1.914209073       0.027553120
      12.000000000     188.200000000       0.064069443       1.916372806       0.027491965
      11.000000000     219.900000000       0.065280028       1.918201240       0.027439757
      10.000000000     256.800000000       0.066282685       1.919663530       0.027397455
       9.000000000     299.300000000       0.067121972       1.920636646       0.027366388
       8.000000000     347.300000000       0.528318244       2.657983989       0.004167487
       7.000000000     401.600000000       0.576497122       2.766210973       0.003414169
       6.000000000     462.700000000       0.578061250       2.768985744       0.003406412
       5.000000000     531.300000000       0.581760411       2.772833611       0.003392921
       4.000000000     608.100000000       0.590028794       2.777786778       0.003369580
       3.000000000     693.800000000       0.608339972       2.783394322       0.003328261
       2.000000000     789.700000000       0.642350419       2.787921512       0.003263006
       1.000000000     897.300000000       0.696125412       2.788479706       0.003171207
       0.000000000    1018.000000000       3.017530521       3.057930118       0.000000000
# Wavelength (microns) 
       9.345795000
# Solar zenithal angle (deg) 
60.000
#     ALTITUDE           PRESSION           FLUX DW          FLUX UP           FLUX DIR
#       (KM)               (hPa)             (W.M-2)          (W.M-2)          (W.M-2) 
     120.000000000       0.000040000       0.027986038       1.768789721       0.027986038
     115.000000000       0.000060000       0.027986038       1.768789721       0.027986038
     110.000000000       0.000110000       0.027986038       1.768789721       0.027986038
     105.000000000       0.000200000       0.027986038       1.768789721       0.027986038
     100.000000000       0.000410000       0.027986038       1.768789721       0.027986038
      95.000000000       0.000880000       0.027986038       1.768789721       0.027986038
      90.000000000       0.001980000       0.027986038       1.768789721       0.027986038
      85.000000000       0.004560000       0.027986038       1.768789721       0.027986038
      80.000000000       0.010300000       0.027986038       1.768789721       0.027986038
      75.000000000       0.022200000       0.027986501       1.768790308       0.027986020
      70.000000000       0.047000000       0.027993119       1.768794314       0.027985830
      65.000000000       0.095000000       0.028046566       1.768804361       0.027984699
      60.000000000       0.188000000       0.028334883       1.768775274       0.027980037
      55.000000000       0.362000000       0.029564464       1.768406620       0.027964393
      50.000000000       0.683000000       0.034028049       1.766472932       0.027915740
      47.500000000       0.940000000       0.038831602       1.764036165       0.027864734
      45.000000000       1.290000000       0.045955020       1.760241948       0.027779458
      42.500000000       1.800000000       0.055000377       1.755348858       0.027641798
      40.000000000       2.530000000       0.065159005       1.749608423       0.027435871
      37.500000000       3.600000000       0.074626476       1.743780920       0.027169668
      35.000000000       5.180000000       0.081618223       1.738991325       0.026867024
      32.500000000       7.560000000       0.085273574       1.736890363       0.026548153
      30.000000000      11.100000000       0.087625818       1.738675305       0.026218913
      27.500000000      16.460000000       0.091925650       1.744450640       0.025838400
      25.000000000      24.400000000       0.100564257       1.756323132       0.025321277
      24.000000000      28.600000000       0.105533038       1.763149524       0.025062605
      23.000000000      33.400000000       0.111314915       1.771365970       0.024772828
      22.000000000      39.100000000       0.117889047       1.781287117       0.024449028
      21.000000000      45.800000000       0.125179618       1.793230066       0.024092246
      20.000000000      53.700000000       0.132813293       1.807049152       0.023719204
      19.000000000      62.800000000       0.140349741       1.822256436       0.023350857
      18.000000000      73.600000000       0.147755708       1.838252299       0.022999299
      17.000000000      86.100000000       0.155053413       1.854571137       0.022668662
      16.000000000     100.700000000       0.162234878       1.871214005       0.022355431
      15.000000000     117.800000000       0.169398614       1.888453488       0.022053594
      14.000000000     137.800000000       0.176912000       1.907351826       0.021747219
      13.000000000     161.100000000       0.185054903       1.928919568       0.021425168
      12.000000000     188.200000000       0.193089288       1.951488497       0.021117120
      11.000000000     219.900000000       0.200175446       1.972397219       0.020854048
      10.000000000     256.800000000       0.206162169       1.990483382       0.020638799
       9.000000000     299.300000000       0.212677858       2.004444136       0.020458784
       8.000000000     347.300000000       0.638521043       2.751509582       0.003125516
       7.000000000     401.600000000       0.689221657       2.874658723       0.002545722
       6.000000000     462.700000000       0.698127615       2.892097409       0.002521076
       5.000000000     531.300000000       0.712824525       2.908628727       0.002489841
       4.000000000     608.100000000       0.736782742       2.924219212       0.002448535
       3.000000000     693.800000000       0.777360357       2.938108616       0.002390818
       2.000000000     789.700000000       0.839909261       2.948253295       0.002313523
       1.000000000     897.300000000       0.927290971       2.950997230       0.002214835
       0.000000000    1018.000000000       3.175093662       3.216533531       0.000000000
# Wavelength (microns) 
       9.523809000
# Solar zenithal angle (deg) 
60.000
#     ALTITUDE           PRESSION           FLUX DW          FLUX UP           FLUX DIR
#       (KM)               (hPa)             (W.M-2)          (W.M-2)          (W.M-2) 
     120.000000000       0.000040000       0.026975632       1.338633055       0.026975632
     115.000000000       0.000060000       0.026975632       1.338633055       0.026975632
     110.000000000       0.000110000       0.026975632       1.338633055       0.026975632
     105.000000000       0.000200000       0.026975632       1.338633055       0.026975632
     100.000000000       0.000410000       0.026975632       1.338633055       0.026975632
      95.000000000       0.000880000       0.026975632       1.338633055       0.026975632
      90.000000000       0.001980000       0.026975632       1.338633055       0.026975632
      85.000000000       0.004560000       0.026975632       1.338633055       0.026975632
      80.000000000       0.010300000       0.026975632       1.338633055       0.026975632
      75.000000000       0.022200000       0.026977035       1.338635564       0.026975582
      70.000000000       0.047000000       0.026995102       1.338653487       0.026975119
      65.000000000       0.095000000       0.027151605       1.338718865       0.026972131
      60.000000000       0.188000000       0.027944009       1.338788356       0.026960490
      55.000000000       0.362000000       0.031266175       1.338286355       0.026921655
      50.000000000       0.683000000       0.042866476       1.334543841       0.026803388
      47.500000000       0.940000000       0.054785050       1.329377460       0.026683376
      45.000000000       1.290000000       0.071665014       1.321011403       0.026489603
      42.500000000       1.800000000       0.091880633       1.309871634       0.026193613
      40.000000000       2.530000000       0.112693798       1.296048065       0.025789082
      37.500000000       3.600000000       0.130032609       1.280501809       0.025310217
      35.000000000       5.180000000       0.143581582       1.264935646       0.024734606
      32.500000000       7.560000000       0.157182274       1.252723923       0.023899194
      30.000000000      11.100000000       0.180123965       1.248161252       0.022575865
      27.500000000      16.460000000       0.219641633       1.249862215       0.020538385
      25.000000000      24.400000000       0.275903229       1.262011324       0.017826660
      24.000000000      28.600000000       0.300845347       1.270198097       0.016704916
      23.000000000      33.400000000       0.325791429       1.280803370       0.015639710
      22.000000000      39.100000000       0.350302969       1.294713214       0.014647982
      21.000000000      45.800000000       0.373850708       1.313079102       0.013744285
      20.000000000      53.700000000       0.395415022       1.336597129       0.012950917
      19.000000000      62.800000000       0.414431661       1.365757988       0.012268104
      18.000000000      73.600000000       0.432344380       1.399944293       0.011674894
      17.000000000      86.100000000       0.449865432       1.437747316       0.011146916
      16.000000000     100.700000000       0.466994841       1.479831663       0.010660825
      15.000000000     117.800000000       0.484111706       1.527730058       0.010195855
      14.000000000     137.800000000       0.502192681       1.586015688       0.009720080
      13.000000000     161.100000000       0.521861964       1.661263309       0.009215064
      12.000000000     188.200000000       0.541255300       1.751375942       0.008730686
      11.000000000     219.900000000       0.558388887       1.846623577       0.008317280
      10.000000000     256.800000000       0.572902973       1.939337955       0.007981009
       9.000000000     299.300000000       0.593054728       2.013998061       0.007716883
       8.000000000     347.300000000       0.887610137       2.754151850       0.001134476
       7.000000000     401.600000000       0.941425247       2.927645350       0.000907783
       6.000000000     462.700000000       0.968805423       2.991888048       0.000887182
       5.000000000     531.300000000       1.004928670       3.041886146       0.000866972
       4.000000000     608.100000000       1.050335590       3.078872944       0.000846348
       3.000000000     693.800000000       1.109396710       3.103744832       0.000823185
       2.000000000     789.700000000       1.186941507       3.118364979       0.000794880
       1.000000000     897.300000000       1.286484648       3.121466568       0.000759777
       0.000000000    1018.000000000       3.337384574       3.379658497       0.000000000
# Wavelength (microns) 
       9.708738000
# Solar zenithal angle (deg) 
60.000
#     ALTITUDE           PRESSION           FLUX DW          FLUX UP           FLUX DIR
#       (KM)               (hPa)             (W.M-2)          (W.M-2)          (W.M-2) 
     120.000000000       0.000040000       0.025985788       1.432250420       0.025985788
     115.000000000       0.000060000       0.025985788       1.432250420       0.025985788
     110.000000000       0.000110000       0.025985788       1.432250420       0.025985788
     105.000000000       0.000200000       0.025985788       1.432250420       0.025985788
     100.000000000       0.000410000       0.025985788       1.432250420       0.025985788
      95.000000000       0.000880000       0.025985788       1.432250420       0.025985788
      90.000000000       0.001980000       0.025985788       1.432250420       0.025985788
      85.000000000       0.004560000       0.025985788       1.432250420       0.025985788
      80.000000000       0.010300000       0.025985788       1.432250420       0.025985788
      75.000000000       0.022200000       0.025987134       1.432252666       0.025985746
      70.000000000       0.047000000       0.026004247       1.432268682       0.025985352
      65.000000000       0.095000000       0.026159470       1.432323817       0.025982681
      60.000000000       0.188000000       0.026951079       1.432356699       0.025972144
      55.000000000       0.362000000       0.030299788       1.431727285       0.025936561
      50.000000000       0.683000000       0.042013925       1.427633843       0.025828031
      47.500000000       0.940000000       0.054164573       1.422156740       0.025717120
      45.000000000       1.290000000       0.071713901       1.413339853       0.025535600
      42.500000000       1.800000000       0.093432367       1.401571300       0.025252079
      40.000000000       2.530000000       0.116827584       1.387065221       0.024853649
      37.500000000       3.600000000       0.137469007       1.371014331       0.024369579
      35.000000000       5.180000000       0.153752604       1.355408262       0.023797016
      32.500000000       7.560000000       0.168297262       1.343957139       0.023023403
      30.000000000      11.100000000       0.190183164       1.340908029       0.021869463
      27.500000000      16.460000000       0.227666672       1.345288144       0.020125914
      25.000000000      24.400000000       0.283293660       1.362003000       0.017720019
      24.000000000      28.600000000       0.309031214       1.372828872       0.016669364
      23.000000000      33.400000000       0.335431029       1.386644917       0.015633256
      22.000000000      39.100000000       0.362028076       1.404456321       0.014630873
      21.000000000      45.800000000       0.388232769       1.427509494       0.013684179
      20.000000000      53.700000000       0.412770003       1.456355651       0.012831708
      19.000000000      62.800000000       0.434745363       1.491123238       0.012090984
      18.000000000      73.600000000       0.455294858       1.530892914       0.011450145
      17.000000000      86.100000000       0.475104476       1.574193037       0.010886836
      16.000000000     100.700000000       0.494269510       1.621603207       0.010375929
      15.000000000     117.800000000       0.513265095       1.674602226       0.009893845
      14.000000000     137.800000000       0.533222785       1.737781746       0.009405645
      13.000000000     161.100000000       0.554883329       1.817263495       0.008890458
      12.000000000     188.200000000       0.576245944       1.909509776       0.008395909
      11.000000000     219.900000000       0.595117070       2.003703411       0.007971691
      10.000000000     256.800000000       0.611054110       2.092130272       0.007624936
       9.000000000     299.300000000       0.631345015       2.161171628       0.007351989
       8.000000000     347.300000000       0.943047539       2.947002533       0.001149179
       7.000000000     401.600000000       0.997395676       3.120392232       0.000924182
       6.000000000     462.700000000       1.021635062       3.176844869       0.000902106
       5.000000000     531.300000000       1.052955085       3.219404834       0.000880929
       4.000000000     608.100000000       1.091583494       3.249817259       0.000860072
       3.000000000     693.800000000       1.141678616       3.269800407       0.000837182
       2.000000000     789.700000000       1.209063448       3.281462951       0.000809049
       1.000000000     897.300000000       1.298501217       3.283709908       0.000773634
       0.000000000    1018.000000000       3.502924861       3.547421115       0.000000000
# Wavelength (microns) 
       9.900990000
# Solar zenithal angle (deg) 
60.000
#     ALTITUDE           PRESSION           FLUX DW          FLUX UP           FLUX DIR
#       (KM)               (hPa)             (W.M-2)          (W.M-2)          (W.M-2) 
     120.000000000       0.000040000       0.025018229       1.886888292       0.025018229
     115.000000000       0.000060000       0.025018229       1.886888292       0.025018229
     110.000000000       0.000110000       0.025018229       1.886888292       0.025018229
     105.000000000       0.000200000       0.025018229       1.886888292       0.025018229
     100.000000000       0.000410000       0.025018229       1.886888292       0.025018229
      95.000000000       0.000880000       0.025018229       1.886888292       0.025018229
      90.000000000       0.001980000       0.025018229       1.886888292       0.025018229
      85.000000000       0.004560000       0.025018229       1.886888292       0.025018229
      80.000000000       0.010300000       0.025018229       1.886888292       0.025018229
      75.000000000       0.022200000       0.025019207       1.886889666       0.025018201
      70.000000000       0.047000000       0.025031568       1.886899022       0.025017946
      65.000000000       0.095000000       0.025138109       1.886929063       0.025016292
      60.000000000       0.188000000       0.025680080       1.886924705       0.025009755
      55.000000000       0.362000000       0.027981020       1.886420912       0.024987546
      50.000000000       0.683000000       0.036131107       1.883433866       0.024919067
      47.500000000       0.940000000       0.044711477       1.879537821       0.024848169
      45.000000000       1.290000000       0.057297454       1.873351568       0.024730568
      42.500000000       1.800000000       0.073113232       1.865242532       0.024543714
      40.000000000       2.530000000       0.090464103       1.855550393       0.024275164
      37.500000000       3.600000000       0.105683723       1.845477596       0.023951050
      35.000000000       5.180000000       0.116047005       1.836842460       0.023605098
      32.500000000       7.560000000       0.121759251       1.832519785       0.023234691
      30.000000000      11.100000000       0.128460948       1.835073834       0.022789004
      27.500000000      16.460000000       0.142640412       1.844875440       0.022150081
      25.000000000      24.400000000       0.168546260       1.866394126       0.021168512
      24.000000000      28.600000000       0.182389619       1.879060277       0.020671569
      23.000000000      33.400000000       0.197894160       1.894472486       0.020123730
      22.000000000      39.100000000       0.214945913       1.913300037       0.019526751
      21.000000000      45.800000000       0.233246823       1.936197281       0.018890923
      20.000000000      53.700000000       0.251776190       1.962922216       0.018252350
      19.000000000      62.800000000       0.269485844       1.992669853       0.017647376
      18.000000000      73.600000000       0.286349480       2.024306842       0.017092715
      17.000000000      86.100000000       0.302494280       2.056863239       0.016590296
      16.000000000     100.700000000       0.317992911       2.090392576       0.016130270
      15.000000000     117.800000000       0.333158493       2.125475506       0.015699404
      14.000000000     137.800000000       0.348852184       2.164355549       0.015271531
      13.000000000     161.100000000       0.365682093       2.209263355       0.014829910
      12.000000000     188.200000000       0.382097393       2.256685895       0.014415000
      11.000000000     219.900000000       0.396358023       2.300722858       0.014067567
      10.000000000     256.800000000       0.408131264       2.338522382       0.013790623
       9.000000000     299.300000000       0.420446261       2.366632568       0.013573349
       8.000000000     347.300000000       0.859460994       3.217451826       0.002284281
       7.000000000     401.600000000       0.916073951       3.366458393       0.001875079
       6.000000000     462.700000000       0.927804898       3.391241693       0.001855351
       5.000000000     531.300000000       0.943552701       3.410546167       0.001835524
       4.000000000     608.100000000       0.964698276       3.425297349       0.001813860
       3.000000000     693.800000000       0.996653284       3.436434478       0.001785481
       2.000000000     789.700000000       1.046828090       3.444017019       0.001744733
       1.000000000     897.300000000       1.121517526       3.445667336       0.001687982
       0.000000000    1018.000000000       3.671915452       3.719461550       0.000000000
# Wavelength (microns) 
      10.101010000
# Solar zenithal angle (deg) 
60.000
#     ALTITUDE           PRESSION           FLUX DW          FLUX UP           FLUX DIR
#       (KM)               (hPa)             (W.M-2)          (W.M-2)          (W.M-2) 
     120.000000000       0.000040000       0.024079828       2.416992261       0.024079828
     115.000000000       0.000060000       0.024079828       2.416992261       0.024079828
     110.000000000       0.000110000       0.024079828       2.416992261       0.024079828
     105.000000000       0.000200000       0.024079828       2.416992261       0.024079828
     100.000000000       0.000410000       0.024079828       2.416992261       0.024079828
      95.000000000       0.000880000       0.024079828       2.416992261       0.024079828
      90.000000000       0.001980000       0.024079828       2.416992261       0.024079828
      85.000000000       0.004560000       0.024079828       2.416992261       0.024079828
      80.000000000       0.010300000       0.024079828       2.416992261       0.024079828
      75.000000000       0.022200000       0.024079828       2.416992261       0.024079828
      70.000000000       0.047000000       0.024079828       2.416992261       0.024079828
      65.000000000       0.095000000       0.024093500       2.416993919       0.024079636
      60.000000000       0.188000000       0.024171301       2.416984093       0.024078786
      55.000000000       0.362000000       0.024548579       2.416870530       0.024075497
      50.000000000       0.683000000       0.026037356       2.416269775       0.024064389
      47.500000000       0.940000000       0.027728404       2.415537136       0.024052316
      45.000000000       1.290000000       0.030346149       2.414504852       0.024032151
      42.500000000       1.800000000       0.033925260       2.413436551       0.023999807
      40.000000000       2.530000000       0.038491857       2.412670744       0.023950130
      37.500000000       3.600000000       0.043722823       2.412699047       0.023880426
      35.000000000       5.180000000       0.049203684       2.414046507       0.023789039
      32.500000000       7.560000000       0.054654587       2.417272916       0.023672701
      30.000000000      11.100000000       0.060342865       2.422719025       0.023524811
      27.500000000      16.460000000       0.067004274       2.430783939       0.023332999
      25.000000000      24.400000000       0.075313260       2.442397421       0.023081309
      24.000000000      28.600000000       0.079162888       2.448115850       0.022963597
      23.000000000      33.400000000       0.083236153       2.454361475       0.022838909
      22.000000000      39.100000000       0.087509991       2.461130421       0.022708027
      21.000000000      45.800000000       0.091958126       2.468413106       0.022571796
      20.000000000      53.700000000       0.096387574       2.475910856       0.022436162
      19.000000000      62.800000000       0.100542526       2.483165073       0.022309065
      18.000000000      73.600000000       0.104395153       2.489955629       0.022192747
      17.000000000      86.100000000       0.107994760       2.496226622       0.022086703
      16.000000000     100.700000000       0.111367211       2.502013362       0.021989773
      15.000000000     117.800000000       0.114609377       2.507480898       0.021898826
      14.000000000     137.800000000       0.117925915       2.512973129       0.021807987
      13.000000000     161.100000000       0.121440973       2.518686910       0.021713961
      12.000000000     188.200000000       0.124855379       2.524133410       0.021624722
      11.000000000     219.900000000       0.127809000       2.528743503       0.021549286
      10.000000000     256.800000000       0.130216167       2.532401418       0.021489216
       9.000000000     299.300000000       0.132419533       2.535034944       0.021441543
       8.000000000     347.300000000       0.750596530       3.458631659       0.003865277
       7.000000000     401.600000000       0.813446811       3.596967096       0.003222041
       6.000000000     462.700000000       0.815491113       3.600544909       0.003215334
       5.000000000     531.300000000       0.818901929       3.604118656       0.003206830
       4.000000000     608.100000000       0.825020041       3.607815627       0.003194641
       3.000000000     693.800000000       0.837841352       3.611662801       0.003173577
       2.000000000     789.700000000       0.864100550       3.614829820       0.003135911
       1.000000000     897.300000000       0.911372305       3.615156891       0.003074041
       0.000000000    1018.000000000       3.845374070       3.895513788       0.000000000
# Wavelength (microns) 
      10.309278000
# Solar zenithal angle (deg) 
60.000
#     ALTITUDE           PRESSION           FLUX DW          FLUX UP           FLUX DIR
#       (KM)               (hPa)             (W.M-2)          (W.M-2)          (W.M-2) 
     120.000000000       0.000040000       0.023145780       2.638665958       0.023145779
     115.000000000       0.000060000       0.023145780       2.638665958       0.023145779
     110.000000000       0.000110000       0.023145780       2.638665958       0.023145779
     105.000000000       0.000200000       0.023145780       2.638665958       0.023145779
     100.000000000       0.000410000       0.023145780       2.638665958       0.023145779
      95.000000000       0.000880000       0.023145780       2.638665958       0.023145779
      90.000000000       0.001980000       0.023145780       2.638665958       0.023145779
      85.000000000       0.004560000       0.023145780       2.638665958       0.023145779
      80.000000000       0.010300000       0.023145780       2.638665958       0.023145779
      75.000000000       0.022200000       0.023145780       2.638665958       0.023145779
      70.000000000       0.047000000       0.023145780       2.638665958       0.023145779
      65.000000000       0.095000000       0.023145780       2.638665958       0.023145779
      60.000000000       0.188000000       0.023160343       2.638665582       0.023145635
      55.000000000       0.362000000       0.023230659       2.638650385       0.023145076
      50.000000000       0.683000000       0.023460961       2.638575010       0.023143505
      47.500000000       0.940000000       0.023690138       2.638493308       0.023142010
      45.000000000       1.290000000       0.023994312       2.638399440       0.023139878
      42.500000000       1.800000000       0.024336525       2.638332365       0.023137088
      40.000000000       2.530000000       0.024695204       2.638316180       0.023133613
      37.500000000       3.600000000       0.025030773       2.638365496       0.023129707
      35.000000000       5.180000000       0.025313194       2.638477278       0.023125705
      32.500000000       7.560000000       0.025534058       2.638635987       0.023121852
      30.000000000      11.100000000       0.025728118       2.638832360       0.023117889
      27.500000000      16.460000000       0.025942504       2.639083232       0.023113168
      25.000000000      24.400000000       0.026212656       2.639420442       0.023107006
      24.000000000      28.600000000       0.026342746       2.639584397       0.023104024
      23.000000000      33.400000000       0.026485539       2.639764477       0.023100749
      22.000000000      39.100000000       0.026641499       2.639961291       0.023097172
      21.000000000      45.800000000       0.026811390       2.640175830       0.023093274
      20.000000000      53.700000000       0.026991882       2.640403867       0.023089132
      19.000000000      62.800000000       0.027177730       2.640638698       0.023084865
      18.000000000      73.600000000       0.027372898       2.640881820       0.023080420
      17.000000000      86.100000000       0.027584953       2.641138555       0.023075663
      16.000000000     100.700000000       0.027824909       2.641420897       0.023070365
      15.000000000     117.800000000       0.028096905       2.641731990       0.023064449
      14.000000000     137.800000000       0.028414468       2.642085190       0.023057645
      13.000000000     161.100000000       0.028790613       2.642492132       0.023049704
      12.000000000     188.200000000       0.029227717       2.642952050       0.023040610
      11.000000000     219.900000000       0.029728445       2.643464427       0.023030341
      10.000000000     256.800000000       0.030307314       2.644040647       0.023018637
       9.000000000     299.300000000       0.031211742       2.644772746       0.023002061
       8.000000000     347.300000000       0.758474755       3.619024028       0.004683551
       7.000000000     401.600000000       0.828325537       3.765802921       0.003954351
       6.000000000     462.700000000       0.831284046       3.770413261       0.003942822
       5.000000000     531.300000000       0.837495820       3.776437613       0.003924386
       4.000000000     608.100000000       0.850051358       3.783734401       0.003894779
       3.000000000     693.800000000       0.876218614       3.791685917       0.003844227
       2.000000000     789.700000000       0.925498341       3.798331409       0.003761238
       1.000000000     897.300000000       1.006785565       3.800099908       0.003636385
       0.000000000    1018.000000000       4.024648896       4.075196810       0.000000000
# Wavelength (microns) 
      10.526316000
# Solar zenithal angle (deg) 
60.000
#     ALTITUDE           PRESSION           FLUX DW          FLUX UP           FLUX DIR
#       (KM)               (hPa)             (W.M-2)          (W.M-2)          (W.M-2) 
     120.000000000       0.000040000       0.022222764       2.754183233       0.022222764
     115.000000000       0.000060000       0.022222764       2.754183233       0.022222764
     110.000000000       0.000110000       0.022222764       2.754183233       0.022222764
     105.000000000       0.000200000       0.022222764       2.754183233       0.022222764
     100.000000000       0.000410000       0.022222764       2.754183233       0.022222764
      95.000000000       0.000880000       0.022222764       2.754183233       0.022222764
      90.000000000       0.001980000       0.022222764       2.754183233       0.022222764
      85.000000000       0.004560000       0.022222764       2.754183233       0.022222764
      80.000000000       0.010300000       0.022222764       2.754183233       0.022222764
      75.000000000       0.022200000       0.022222764       2.754183233       0.022222764
      70.000000000       0.047000000       0.022222764       2.754183233       0.022222764
      65.000000000       0.095000000       0.022222764       2.754183233       0.022222764
      60.000000000       0.188000000       0.022234933       2.754182845       0.022222654
      55.000000000       0.362000000       0.022275861       2.754173838       0.022222357
      50.000000000       0.683000000       0.022385282       2.754137817       0.022221674
      47.500000000       0.940000000       0.022477324       2.754104857       0.022221124
      45.000000000       1.290000000       0.022582462       2.754072108       0.022220450
      42.500000000       1.800000000       0.022682618       2.754051870       0.022219706
      40.000000000       2.530000000       0.022772592       2.754046825       0.022218915
      37.500000000       3.600000000       0.022849032       2.754056685       0.022218111
      35.000000000       5.180000000       0.022909430       2.754078860       0.022217341
      32.500000000       7.560000000       0.022952869       2.754108120       0.022216663
      30.000000000      11.100000000       0.022988777       2.754142219       0.022216011
      27.500000000      16.460000000       0.023028060       2.754185320       0.022215243
      25.000000000      24.400000000       0.023079110       2.754244992       0.022214211
      24.000000000      28.600000000       0.023105056       2.754275596       0.022213684
      23.000000000      33.400000000       0.023135473       2.754311475       0.022213067
      22.000000000      39.100000000       0.023171012       2.754353411       0.022212345
      21.000000000      45.800000000       0.023212593       2.754402495       0.022211500
      20.000000000      53.700000000       0.023261277       2.754459990       0.022210511
      19.000000000      62.800000000       0.023318216       2.754527269       0.022209354
      18.000000000      73.600000000       0.023387105       2.754607582       0.022207965
      17.000000000      86.100000000       0.023472894       2.754704884       0.022206260
      16.000000000     100.700000000       0.023579488       2.754822495       0.022204173
      15.000000000     117.800000000       0.023711770       2.754964471       0.022201620
      14.000000000     137.800000000       0.023875716       2.755135633       0.022198502
      13.000000000     161.100000000       0.024078503       2.755341575       0.022194699
      12.000000000     188.200000000       0.024328843       2.755588880       0.022190071
      11.000000000     219.900000000       0.024648291       2.755895952       0.022184249
      10.000000000     256.800000000       0.025046526       2.756268155       0.022177090
       9.000000000     299.300000000       0.025739656       2.756794360       0.022165761
       8.000000000     347.300000000       0.821729180       3.790632736       0.005061741
       7.000000000     401.600000000       0.896168207       3.947993255       0.004326688
       6.000000000     462.700000000       0.898999987       3.952284395       0.004315163
       5.000000000     531.300000000       0.905334658       3.958243181       0.004295461
       4.000000000     608.100000000       0.918746993       3.965844140       0.004262226
       3.000000000     693.800000000       0.947723812       3.974605257       0.004203351
       2.000000000     789.700000000       1.002912332       3.982396720       0.004105862
       1.000000000     897.300000000       1.093637186       3.985227285       0.003960274
       0.000000000    1018.000000000       4.206688271       4.258008031       0.000000000
# Wavelength (microns) 
      10.752688000
# Solar zenithal angle (deg) 
60.000
#     ALTITUDE           PRESSION           FLUX DW          FLUX UP           FLUX DIR
#       (KM)               (hPa)             (W.M-2)          (W.M-2)          (W.M-2) 
     120.000000000       0.000040000       0.021322255       2.868578418       0.021322255
     115.000000000       0.000060000       0.021322255       2.868578418       0.021322255
     110.000000000       0.000110000       0.021322255       2.868578418       0.021322255
     105.000000000       0.000200000       0.021322255       2.868578418       0.021322255
     100.000000000       0.000410000       0.021322255       2.868578418       0.021322255
      95.000000000       0.000880000       0.021322255       2.868578418       0.021322255
      90.000000000       0.001980000       0.021322255       2.868578418       0.021322255
      85.000000000       0.004560000       0.021322255       2.868578418       0.021322255
      80.000000000       0.010300000       0.021322255       2.868578418       0.021322255
      75.000000000       0.022200000       0.021322255       2.868578418       0.021322255
      70.000000000       0.047000000       0.021322255       2.868578418       0.021322255
      65.000000000       0.095000000       0.021322255       2.868578418       0.021322255
      60.000000000       0.188000000       0.021322255       2.868578418       0.021322255
      55.000000000       0.362000000       0.021338285       2.868574895       0.021322149
      50.000000000       0.683000000       0.021384299       2.868559857       0.021321886
      47.500000000       0.940000000       0.021423473       2.868545945       0.021321671
      45.000000000       1.290000000       0.021466406       2.868532669       0.021321419
      42.500000000       1.800000000       0.021503698       2.868525142       0.021321167
      40.000000000       2.530000000       0.021532835       2.868523419       0.021320934
      37.500000000       3.600000000       0.021552537       2.868525799       0.021320746
      35.000000000       5.180000000       0.021561773       2.868529042       0.021320640
      32.500000000       7.560000000       0.021561827       2.868529073       0.021320639
      30.000000000      11.100000000       0.021572637       2.868538906       0.021320464
      27.500000000      16.460000000       0.021591759       2.868558981       0.021320131
      25.000000000      24.400000000       0.021621103       2.868591784       0.021319603
      24.000000000      28.600000000       0.021636231       2.868608847       0.021319330
      23.000000000      33.400000000       0.021653856       2.868628731       0.021319011
      22.000000000      39.100000000       0.021674465       2.868651975       0.021318638
      21.000000000      45.800000000       0.021698494       2.868679082       0.021318204
      20.000000000      53.700000000       0.021726536       2.868710725       0.021317697
      19.000000000      62.800000000       0.021759214       2.868747607       0.021317106
      18.000000000      73.600000000       0.021796821       2.868789477       0.021316431
      17.000000000      86.100000000       0.021839598       2.868835798       0.021315675
      16.000000000     100.700000000       0.021888004       2.868886769       0.021314831
      15.000000000     117.800000000       0.021942569       2.868942625       0.021313893
      14.000000000     137.800000000       0.022003803       2.869003551       0.021312855
      13.000000000     161.100000000       0.022072126       2.869069605       0.021311714
      12.000000000     188.200000000       0.022147961       2.869140823       0.021310466
      11.000000000     219.900000000       0.022232175       2.869217582       0.021309098
      10.000000000     256.800000000       0.022336936       2.869310080       0.021307422
       9.000000000     299.300000000       0.022397564       2.869352535       0.021306537
       8.000000000     347.300000000       0.897627599       3.977788943       0.004829222
       7.000000000     401.600000000       0.977076790       4.147894849       0.004129058
       6.000000000     462.700000000       0.978187173       4.149575002       0.004124874
       5.000000000     531.300000000       0.981387549       4.152578116       0.004115657
       4.000000000     608.100000000       0.989503357       4.157168277       0.004097028
       3.000000000     693.800000000       1.010209367       4.163426789       0.004058032
       2.000000000     789.700000000       1.054754031       4.169739329       0.003985038
       1.000000000     897.300000000       1.134074085       4.172450732       0.003866816
       0.000000000    1018.000000000       4.394568950       4.443533069       0.000000000
# Wavelength (microns) 
      10.989011000
# Solar zenithal angle (deg) 
60.000
#     ALTITUDE           PRESSION           FLUX DW          FLUX UP           FLUX DIR
#       (KM)               (hPa)             (W.M-2)          (W.M-2)          (W.M-2) 
     120.000000000       0.000040000       0.020438796       2.980496988       0.020438796
     115.000000000       0.000060000       0.020438796       2.980496988       0.020438796
     110.000000000       0.000110000       0.020438796       2.980496988       0.020438796
     105.000000000       0.000200000       0.020438796       2.980496988       0.020438796
     100.000000000       0.000410000       0.020438796       2.980496988       0.020438796
      95.000000000       0.000880000       0.020438796       2.980496988       0.020438796
      90.000000000       0.001980000       0.020438796       2.980496988       0.020438796
      85.000000000       0.004560000       0.020438796       2.980496988       0.020438796
      80.000000000       0.010300000       0.020438796       2.980496988       0.020438796
      75.000000000       0.022200000       0.020438796       2.980496988       0.020438796
      70.000000000       0.047000000       0.020438796       2.980496988       0.020438796
      65.000000000       0.095000000       0.020438796       2.980496988       0.020438796
      60.000000000       0.188000000       0.020438796       2.980496988       0.020438796
      55.000000000       0.362000000       0.020438796       2.980496988       0.020438796
      50.000000000       0.683000000       0.020438997       2.980496913       0.020438795
      47.500000000       0.940000000       0.020439170       2.980496844       0.020438794
      45.000000000       1.290000000       0.020439358       2.980496778       0.020438793
      42.500000000       1.800000000       0.020439518       2.980496737       0.020438792
      40.000000000       2.530000000       0.020439642       2.980496721       0.020438792
      37.500000000       3.600000000       0.020439730       2.980496724       0.020438791
      35.000000000       5.180000000       0.020439730       2.980496724       0.020438791
      32.500000000       7.560000000       0.020439730       2.980496724       0.020438791
      30.000000000      11.100000000       0.020439730       2.980496724       0.020438791
      27.500000000      16.460000000       0.020439780       2.980496766       0.020438790
      25.000000000      24.400000000       0.020445638       2.980502968       0.020438696
      24.000000000      28.600000000       0.020445680       2.980503007       0.020438695
      23.000000000      33.400000000       0.020445729       2.980503053       0.020438695
      22.000000000      39.100000000       0.020449870       2.980507473       0.020438628
      21.000000000      45.800000000       0.020454703       2.980512633       0.020438550
      20.000000000      53.700000000       0.020460347       2.980518659       0.020438459
      19.000000000      62.800000000       0.020466929       2.980525687       0.020438353
      18.000000000      73.600000000       0.020474471       2.980533629       0.020438232
      17.000000000      86.100000000       0.020482972       2.980542333       0.020438098
      16.000000000     100.700000000       0.020492504       2.980551822       0.020437950
      15.000000000     117.800000000       0.020503152       2.980562124       0.020437786
      14.000000000     137.800000000       0.020514993       2.980573256       0.020437607
      13.000000000     161.100000000       0.020528115       2.980585237       0.020437411
      12.000000000     188.200000000       0.020542718       2.980598168       0.020437197
      11.000000000     219.900000000       0.020558965       2.980612107       0.020436961
      10.000000000     256.800000000       0.020578348       2.980628118       0.020436684
       9.000000000     299.300000000       0.020597086       2.980639957       0.020436439
       8.000000000     347.300000000       0.977581853       4.154769137       0.004273795
       7.000000000     401.600000000       1.063110378       4.337304757       0.003624150
       6.000000000     462.700000000       1.063774895       4.338228332       0.003622021
       5.000000000     531.300000000       1.066172615       4.340322147       0.003616143
       4.000000000     608.100000000       1.073200185       4.344102968       0.003602394
       3.000000000     693.800000000       1.093274168       4.350082161       0.003570274
       2.000000000     789.700000000       1.138718169       4.356765511       0.003507431
       1.000000000     897.300000000       1.221402540       4.360293585       0.003403753
       0.000000000    1018.000000000       4.584758243       4.631103728       0.000000000
# Wavelength (microns) 
      11.235955000
# Solar zenithal angle (deg) 
60.000
#     ALTITUDE           PRESSION           FLUX DW          FLUX UP           FLUX DIR
#       (KM)               (hPa)             (W.M-2)          (W.M-2)          (W.M-2) 
     120.000000000       0.000040000       0.019567269       3.096788989       0.019567269
     115.000000000       0.000060000       0.019567269       3.096788989       0.019567269
     110.000000000       0.000110000       0.019567269       3.096788989       0.019567269
     105.000000000       0.000200000       0.019567269       3.096788989       0.019567269
     100.000000000       0.000410000       0.019567269       3.096788989       0.019567269
      95.000000000       0.000880000       0.019567269       3.096788989       0.019567269
      90.000000000       0.001980000       0.019567269       3.096788989       0.019567269
      85.000000000       0.004560000       0.019567269       3.096788989       0.019567269
      80.000000000       0.010300000       0.019567269       3.096788989       0.019567269
      75.000000000       0.022200000       0.019567269       3.096788989       0.019567269
      70.000000000       0.047000000       0.019567269       3.096788989       0.019567269
      65.000000000       0.095000000       0.019567269       3.096788989       0.019567269
      60.000000000       0.188000000       0.019567269       3.096788989       0.019567269
      55.000000000       0.362000000       0.019567269       3.096788989       0.019567269
      50.000000000       0.683000000       0.019567742       3.096788812       0.019567267
      47.500000000       0.940000000       0.019567877       3.096788757       0.019567266
      45.000000000       1.290000000       0.019568349       3.096788588       0.019567264
      42.500000000       1.800000000       0.019568842       3.096788458       0.019567261
      40.000000000       2.530000000       0.019569343       3.096788388       0.019567257
      37.500000000       3.600000000       0.019569844       3.096788398       0.019567254
      35.000000000       5.180000000       0.019570339       3.096788505       0.019567249
      32.500000000       7.560000000       0.019570827       3.096788735       0.019567243
      30.000000000      11.100000000       0.019571363       3.096789107       0.019567236
      27.500000000      16.460000000       0.019572030       3.096789649       0.019567227
      25.000000000      24.400000000       0.019572910       3.096790414       0.019567215
      24.000000000      28.600000000       0.019573344       3.096790795       0.019567208
      23.000000000      33.400000000       0.019573836       3.096791227       0.019567201
      22.000000000      39.100000000       0.019574394       3.096791717       0.019567193
      21.000000000      45.800000000       0.019575030       3.096792275       0.019567184
      20.000000000      53.700000000       0.019575757       3.096792914       0.019567174
      19.000000000      62.800000000       0.019576588       3.096793644       0.019567162
      18.000000000      73.600000000       0.019577550       3.096794476       0.019567148
      17.000000000      86.100000000       0.019578763       3.096795503       0.019567131
      16.000000000     100.700000000       0.019580194       3.096796678       0.019567111
      15.000000000     117.800000000       0.019581899       3.096798036       0.019567087
      14.000000000     137.800000000       0.019584813       3.096800378       0.019567048
      13.000000000     161.100000000       0.019592262       3.096806529       0.019566948
      12.000000000     188.200000000       0.019601247       3.096813697       0.019566830
      11.000000000     219.900000000       0.019613561       3.096823104       0.019566670
      10.000000000     256.800000000       0.019640050       3.096842269       0.019566330
       9.000000000     299.300000000       0.019707381       3.096880789       0.019565539
       8.000000000     347.300000000       1.056861822       4.324602491       0.003807236
       7.000000000     401.600000000       1.148696796       4.517250086       0.003203725
       6.000000000     462.700000000       1.149761532       4.518695002       0.003200815
       5.000000000     531.300000000       1.153206360       4.521693288       0.003193602
       4.000000000     608.100000000       1.162497660       4.526748012       0.003178076
       3.000000000     693.800000000       1.187526984       4.534330908       0.003143789
       2.000000000     789.700000000       1.242498617       4.542611379       0.003078308
       1.000000000     897.300000000       1.340451825       4.547102254       0.002972068
       0.000000000    1018.000000000       4.776402798       4.820022515       0.000000000
# Wavelength (microns) 
      11.494253000
# Solar zenithal angle (deg) 
60.000
#     ALTITUDE           PRESSION           FLUX DW          FLUX UP           FLUX DIR
#       (KM)               (hPa)             (W.M-2)          (W.M-2)          (W.M-2) 
     120.000000000       0.000040000       0.018722815       3.221157664       0.018722815
     115.000000000       0.000060000       0.018722815       3.221157664       0.018722815
     110.000000000       0.000110000       0.018722815       3.221157664       0.018722815
     105.000000000       0.000200000       0.018722815       3.221157664       0.018722815
     100.000000000       0.000410000       0.018722815       3.221157664       0.018722815
      95.000000000       0.000880000       0.018722815       3.221157664       0.018722815
      90.000000000       0.001980000       0.018722815       3.221157664       0.018722815
      85.000000000       0.004560000       0.018722815       3.221157664       0.018722815
      80.000000000       0.010300000       0.018722815       3.221157664       0.018722815
      75.000000000       0.022200000       0.018722815       3.221157664       0.018722815
      70.000000000       0.047000000       0.018722815       3.221157664       0.018722815
      65.000000000       0.095000000       0.018722815       3.221157664       0.018722815
      60.000000000       0.188000000       0.018722815       3.221157664       0.018722815
      55.000000000       0.362000000       0.018722815       3.221157664       0.018722815
      50.000000000       0.683000000       0.018723265       3.221157497       0.018722813
      47.500000000       0.940000000       0.018723265       3.221157497       0.018722813
      45.000000000       1.290000000       0.018723710       3.221157339       0.018722811
      42.500000000       1.800000000       0.018724160       3.221157221       0.018722808
      40.000000000       2.530000000       0.018724596       3.221157160       0.018722806
      37.500000000       3.600000000       0.018725005       3.221157166       0.018722803
      35.000000000       5.180000000       0.018725378       3.221157243       0.018722800
      32.500000000       7.560000000       0.018725709       3.221157393       0.018722796
      30.000000000      11.100000000       0.018726043       3.221157615       0.018722793
      27.500000000      16.460000000       0.018726440       3.221157925       0.018722788
      25.000000000      24.400000000       0.018726957       3.221158357       0.018722781
      24.000000000      28.600000000       0.018727213       3.221158573       0.018722778
      23.000000000      33.400000000       0.018727505       3.221158819       0.018722774
      22.000000000      39.100000000       0.018727837       3.221159099       0.018722770
      21.000000000      45.800000000       0.018728218       3.221159420       0.018722765
      20.000000000      53.700000000       0.018728657       3.221159790       0.018722759
      19.000000000      62.800000000       0.018729161       3.221160216       0.018722753
      18.000000000      73.600000000       0.018729752       3.221160706       0.018722745
      17.000000000      86.100000000       0.018730452       3.221161271       0.018722736
      16.000000000     100.700000000       0.018731289       3.221161925       0.018722726
      15.000000000     117.800000000       0.018732298       3.221162690       0.018722713
      14.000000000     137.800000000       0.018733613       3.221163662       0.018722697
      13.000000000     161.100000000       0.018735448       3.221164993       0.018722675
      12.000000000     188.200000000       0.018737906       3.221166723       0.018722646
      11.000000000     219.900000000       0.018747007       3.221173383       0.018722540
      10.000000000     256.800000000       0.018767952       3.221188029       0.018722299
       9.000000000     299.300000000       0.018833460       3.221224774       0.018721608
       8.000000000     347.300000000       1.136025445       4.500047354       0.003450149
       7.000000000     401.600000000       1.233906515       4.701985230       0.002886783
       6.000000000     462.700000000       1.234900711       4.703333329       0.002884411
       5.000000000     531.300000000       1.238268092       4.706238487       0.002878249
       4.000000000     608.100000000       1.247653827       4.711271601       0.002864516
       3.000000000     693.800000000       1.273522691       4.719004685       0.002833429
       2.000000000     789.700000000       1.331006263       4.727622498       0.002773362
       1.000000000     897.300000000       1.433943345       4.732488476       0.002675578
       0.000000000    1018.000000000       4.967463449       5.009539333       0.000000000
# Wavelength (microns) 
      11.764706000
# Solar zenithal angle (deg) 
60.000
#     ALTITUDE           PRESSION           FLUX DW          FLUX UP           FLUX DIR
#       (KM)               (hPa)             (W.M-2)          (W.M-2)          (W.M-2) 
     120.000000000       0.000040000       0.017888291       3.339929844       0.017888291
     115.000000000       0.000060000       0.017888291       3.339929844       0.017888291
     110.000000000       0.000110000       0.017888291       3.339929844       0.017888291
     105.000000000       0.000200000       0.017888291       3.339929844       0.017888291
     100.000000000       0.000410000       0.017888291       3.339929844       0.017888291
      95.000000000       0.000880000       0.017888291       3.339929844       0.017888291
      90.000000000       0.001980000       0.017888291       3.339929844       0.017888291
      85.000000000       0.004560000       0.017888291       3.339929844       0.017888291
      80.000000000       0.010300000       0.017888291       3.339929844       0.017888291
      75.000000000       0.022200000       0.017888291       3.339929844       0.017888291
      70.000000000       0.047000000       0.017888291       3.339929844       0.017888291
      65.000000000       0.095000000       0.017888291       3.339929844       0.017888291
      60.000000000       0.188000000       0.017888291       3.339929844       0.017888291
      55.000000000       0.362000000       0.017888734       3.339929710       0.017888289
      50.000000000       0.683000000       0.017889940       3.339929239       0.017888284
      47.500000000       0.940000000       0.017890960       3.339928816       0.017888280
      45.000000000       1.290000000       0.017892134       3.339928375       0.017888275
      42.500000000       1.800000000       0.017893263       3.339928050       0.017888270
      40.000000000       2.530000000       0.017894279       3.339927875       0.017888264
      37.500000000       3.600000000       0.017895142       3.339927851       0.017888259
      35.000000000       5.180000000       0.017895823       3.339927955       0.017888254
      32.500000000       7.560000000       0.017896313       3.339928141       0.017888249
      30.000000000      11.100000000       0.017896710       3.339928371       0.017888245
      27.500000000      16.460000000       0.017897110       3.339928644       0.017888241
      25.000000000      24.400000000       0.017897569       3.339928981       0.017888235
      24.000000000      28.600000000       0.017897786       3.339929142       0.017888233
      23.000000000      33.400000000       0.017898028       3.339929322       0.017888230
      22.000000000      39.100000000       0.017898298       3.339929522       0.017888227
      21.000000000      45.800000000       0.017898601       3.339929746       0.017888223
      20.000000000      53.700000000       0.017898943       3.339930000       0.017888219
      19.000000000      62.800000000       0.017899328       3.339930286       0.017888215
      18.000000000      73.600000000       0.017899781       3.339930617       0.017888210
      17.000000000      86.100000000       0.017900339       3.339931012       0.017888204
      16.000000000     100.700000000       0.017901029       3.339931484       0.017888196
      15.000000000     117.800000000       0.017902012       3.339932144       0.017888185
      14.000000000     137.800000000       0.017903265       3.339932957       0.017888171
      13.000000000     161.100000000       0.017905404       3.339934347       0.017888148
      12.000000000     188.200000000       0.017913415       3.339940038       0.017888064
      11.000000000     219.900000000       0.017926992       3.339949343       0.017887922
      10.000000000     256.800000000       0.017967087       3.339976076       0.017887508
       9.000000000     299.300000000       0.018063526       3.340025316       0.017886593
       8.000000000     347.300000000       1.216144702       4.654620380       0.003157594
       7.000000000     401.600000000       1.320127591       4.862768056       0.002629560
       6.000000000     462.700000000       1.322077039       4.865084746       0.002625486
       5.000000000     531.300000000       1.328691828       4.870107851       0.002614855
       4.000000000     608.100000000       1.346728317       4.878830507       0.002591687
       3.000000000     693.800000000       1.393315980       4.892029549       0.002542934
       2.000000000     789.700000000       1.486606145       4.906442473       0.002458815
       1.000000000     897.300000000       1.638588806       4.915319136       0.002334659
       0.000000000    1018.000000000       5.159683472       5.198868421       0.000000000
# Wavelength (microns) 
      12.048193000
# Solar zenithal angle (deg) 
60.000
#     ALTITUDE           PRESSION           FLUX DW          FLUX UP           FLUX DIR
#       (KM)               (hPa)             (W.M-2)          (W.M-2)          (W.M-2) 
     120.000000000       0.000040000       0.017080033       3.475011147       0.017080033
     115.000000000       0.000060000       0.017080033       3.475011147       0.017080033
     110.000000000       0.000110000       0.017080033       3.475011147       0.017080033
     105.000000000       0.000200000       0.017080033       3.475011147       0.017080033
     100.000000000       0.000410000       0.017080033       3.475011147       0.017080033
      95.000000000       0.000880000       0.017080033       3.475011147       0.017080033
      90.000000000       0.001980000       0.017080033       3.475011147       0.017080033
      85.000000000       0.004560000       0.017080033       3.475011147       0.017080033
      80.000000000       0.010300000       0.017080033       3.475011147       0.017080033
      75.000000000       0.022200000       0.017080033       3.475011147       0.017080033
      70.000000000       0.047000000       0.017080033       3.475011147       0.017080033
      65.000000000       0.095000000       0.017080033       3.475011147       0.017080033
      60.000000000       0.188000000       0.017080033       3.475011147       0.017080033
      55.000000000       0.362000000       0.017080070       3.475011137       0.017080033
      50.000000000       0.683000000       0.017097956       3.475005211       0.017079967
      47.500000000       0.940000000       0.017104554       3.475002851       0.017079944
      45.000000000       1.290000000       0.017122905       3.474997059       0.017079874
      42.500000000       1.800000000       0.017152934       3.474990439       0.017079744
      40.000000000       2.530000000       0.017180213       3.474987788       0.017079608
      37.500000000       3.600000000       0.017212509       3.474989587       0.017079419
      35.000000000       5.180000000       0.017248591       3.474998512       0.017079170
      32.500000000       7.560000000       0.017287462       3.475017443       0.017078850
      30.000000000      11.100000000       0.017332390       3.475048732       0.017078428
      27.500000000      16.460000000       0.017394890       3.475099162       0.017077804
      25.000000000      24.400000000       0.017478960       3.475171460       0.017076938
      24.000000000      28.600000000       0.017519425       3.475206565       0.017076520
      23.000000000      33.400000000       0.017563412       3.475244731       0.017076066
      22.000000000      39.100000000       0.017610925       3.475285962       0.017075574
      21.000000000      45.800000000       0.017662017       3.475330305       0.017075046
      20.000000000      53.700000000       0.017715249       3.475376510       0.017074496
      19.000000000      62.800000000       0.017768491       3.475422723       0.017073946
      18.000000000      73.600000000       0.017821420       3.475468013       0.017073402
      17.000000000      86.100000000       0.017874513       3.475512160       0.017072864
      16.000000000     100.700000000       0.017928353       3.475555646       0.017072325
      15.000000000     117.800000000       0.017984551       3.475599713       0.017071770
      14.000000000     137.800000000       0.018045881       3.475646393       0.017071172
      13.000000000     161.100000000       0.018124096       3.475704207       0.017070419
      12.000000000     188.200000000       0.018210593       3.475766209       0.017069596
      11.000000000     219.900000000       0.018305756       3.475832232       0.017068703
      10.000000000     256.800000000       0.018421285       3.475909294       0.017067632
       9.000000000     299.300000000       0.018571866       3.475988267       0.017066346
       8.000000000     347.300000000       1.298072860       4.840136018       0.002910348
       7.000000000     401.600000000       1.408001696       5.057227536       0.002415042
       6.000000000     462.700000000       1.409396839       5.059130489       0.002412430
       5.000000000     531.300000000       1.413894073       5.062978210       0.002405959
       4.000000000     608.100000000       1.426134495       5.069415464       0.002391830
       3.000000000     693.800000000       1.459227546       5.079036593       0.002360326
       2.000000000     789.700000000       1.531814081       5.089556466       0.002300057
       1.000000000     897.300000000       1.660283454       5.095301194       0.002202908
       0.000000000    1018.000000000       5.349216207       5.387031555       0.000000000
# Wavelength (microns) 
      12.345679000
# Solar zenithal angle (deg) 
60.000
#     ALTITUDE           PRESSION           FLUX DW          FLUX UP           FLUX DIR
#       (KM)               (hPa)             (W.M-2)          (W.M-2)          (W.M-2) 
     120.000000000       0.000040000       0.016276784       3.586763371       0.016276784
     115.000000000       0.000060000       0.016276784       3.586763371       0.016276784
     110.000000000       0.000110000       0.016276784       3.586763371       0.016276784
     105.000000000       0.000200000       0.016276784       3.586763371       0.016276784
     100.000000000       0.000410000       0.016276784       3.586763371       0.016276784
      95.000000000       0.000880000       0.016276784       3.586763371       0.016276784
      90.000000000       0.001980000       0.016276784       3.586763371       0.016276784
      85.000000000       0.004560000       0.016276784       3.586763371       0.016276784
      80.000000000       0.010300000       0.016276784       3.586763371       0.016276784
      75.000000000       0.022200000       0.016276784       3.586763371       0.016276784
      70.000000000       0.047000000       0.016276784       3.586763371       0.016276784
      65.000000000       0.095000000       0.016276784       3.586763371       0.016276784
      60.000000000       0.188000000       0.016291220       3.586762064       0.016276717
      55.000000000       0.362000000       0.016337729       3.586750694       0.016276537
      50.000000000       0.683000000       0.016477368       3.586703835       0.016276062
      47.500000000       0.940000000       0.016601455       3.586659154       0.016275656
      45.000000000       1.290000000       0.016759173       3.586608668       0.016275107
      42.500000000       1.800000000       0.016939428       3.586567527       0.016274396
      40.000000000       2.530000000       0.017143134       3.586545394       0.016273467
      37.500000000       3.600000000       0.017366791       3.586554073       0.016272279
      35.000000000       5.180000000       0.017603993       3.586606984       0.016270797
      32.500000000       7.560000000       0.017851700       3.586719207       0.016268958
      30.000000000      11.100000000       0.018132861       3.586902965       0.016266583
      27.500000000      16.460000000       0.018488479       3.587173106       0.016263387
      25.000000000      24.400000000       0.018958691       3.587554645       0.016259037
      24.000000000      28.600000000       0.019185191       3.587740280       0.016256933
      23.000000000      33.400000000       0.019432423       3.587943083       0.016254635
      22.000000000      39.100000000       0.019700746       3.588163386       0.016252140
      21.000000000      45.800000000       0.019999661       3.588409050       0.016249361
      20.000000000      53.700000000       0.020314780       3.588668239       0.016246429
      19.000000000      62.800000000       0.020635195       3.588931934       0.016243448
      18.000000000      73.600000000       0.020963712       3.589198542       0.016240410
      17.000000000      86.100000000       0.021309359       3.589471131       0.016237253
      16.000000000     100.700000000       0.021679908       3.589755025       0.016233911
      15.000000000     117.800000000       0.022088612       3.590059179       0.016230270
      14.000000000     137.800000000       0.022555983       3.590397040       0.016226157
      13.000000000     161.100000000       0.023100527       3.590779417       0.016221423
      12.000000000     188.200000000       0.023723112       3.591203935       0.016216074
      11.000000000     219.900000000       0.024426417       3.591669407       0.016210104
      10.000000000     256.800000000       0.025238476       3.592190480       0.016203289
       9.000000000     299.300000000       0.026446973       3.592812279       0.016193931
       8.000000000     347.300000000       1.383531176       4.975802956       0.002678353
       7.000000000     401.600000000       1.500082324       5.197362396       0.002212710
       6.000000000     462.700000000       1.504627844       5.203341980       0.002205162
       5.000000000     531.300000000       1.516695655       5.212941263       0.002189744
       4.000000000     608.100000000       1.545635899       5.226989069       0.002160088
       3.000000000     693.800000000       1.613441024       5.245774242       0.002103297
       2.000000000     789.700000000       1.741313329       5.264931237       0.002010897
       1.000000000     897.300000000       1.941709877       5.276146703       0.001879406
       0.000000000    1018.000000000       5.536751970       5.573079647       0.000000000
# Wavelength (microns) 
      12.658228000
# Solar zenithal angle (deg) 
60.000
#     ALTITUDE           PRESSION           FLUX DW          FLUX UP           FLUX DIR
#       (KM)               (hPa)             (W.M-2)          (W.M-2)          (W.M-2) 
     120.000000000       0.000040000       0.015504295       3.664621753       0.015504295
     115.000000000       0.000060000       0.015504295       3.664621753       0.015504295
     110.000000000       0.000110000       0.015504295       3.664621753       0.015504295
     105.000000000       0.000200000       0.015504295       3.664621753       0.015504295
     100.000000000       0.000410000       0.015504295       3.664621753       0.015504295
      95.000000000       0.000880000       0.015504295       3.664621753       0.015504295
      90.000000000       0.001980000       0.015504295       3.664621753       0.015504295
      85.000000000       0.004560000       0.015504295       3.664621753       0.015504295
      80.000000000       0.010300000       0.015504295       3.664621753       0.015504295
      75.000000000       0.022200000       0.015504295       3.664621753       0.015504295
      70.000000000       0.047000000       0.015505775       3.664622142       0.015504285
      65.000000000       0.095000000       0.015516311       3.664622272       0.015504231
      60.000000000       0.188000000       0.015558641       3.664614983       0.015504051
      55.000000000       0.362000000       0.015713113       3.664568404       0.015503504
      50.000000000       0.683000000       0.016134413       3.664406870       0.015502186
      47.500000000       0.940000000       0.016508067       3.664255531       0.015501059
      45.000000000       1.290000000       0.016985715       3.664080424       0.015499528
      42.500000000       1.800000000       0.017541612       3.663925918       0.015497511
      40.000000000       2.530000000       0.018188677       3.663821526       0.015494805
      37.500000000       3.600000000       0.018922841       3.663808439       0.015491238
      35.000000000       5.180000000       0.019735283       3.663939438       0.015486603
      32.500000000       7.560000000       0.020632727       3.664284847       0.015480538
      30.000000000      11.100000000       0.021706754       3.664908248       0.015472295
      27.500000000      16.460000000       0.023098709       3.665862234       0.015460923
      25.000000000      24.400000000       0.024964166       3.667240608       0.015445208
      24.000000000      28.600000000       0.025863248       3.667914424       0.015437587
      23.000000000      33.400000000       0.026843540       3.668651034       0.015429263
      22.000000000      39.100000000       0.027906600       3.669452000       0.015420219
      21.000000000      45.800000000       0.029053584       3.670318617       0.015410440
      20.000000000      53.700000000       0.030252044       3.671225868       0.015400196
      19.000000000      62.800000000       0.031455421       3.672137203       0.015389878
      18.000000000      73.600000000       0.032663224       3.673037381       0.015379552
      17.000000000      86.100000000       0.033895103       3.673926708       0.015369113
      16.000000000     100.700000000       0.035168532       3.674817706       0.015358410
      15.000000000     117.800000000       0.036515206       3.675732893       0.015347181
      14.000000000     137.800000000       0.037986940       3.676708110       0.015335006
      13.000000000     161.100000000       0.039673733       3.677802264       0.015321180
      12.000000000     188.200000000       0.041563992       3.679002913       0.015305811
      11.000000000     219.900000000       0.043668802       3.680309562       0.015288823
      10.000000000     256.800000000       0.046219797       3.681831150       0.015268441
       9.000000000     299.300000000       0.050388367       3.683729509       0.015237892
       8.000000000     347.300000000       1.475826269       5.047124400       0.002450330
       7.000000000     401.600000000       1.602158585       5.269324863       0.002008942
       6.000000000     462.700000000       1.621325844       5.286687158       0.001982701
       5.000000000     531.300000000       1.663780264       5.312685645       0.001938977
       4.000000000     608.100000000       1.744040883       5.347566380       0.001874689
       3.000000000     693.800000000       1.890963481       5.389733500       0.001779187
       2.000000000     789.700000000       2.115321541       5.429107358       0.001649304
       1.000000000     897.300000000       2.418625613       5.455462590       0.001486725
       0.000000000    1018.000000000       5.721490594       5.755936945       0.000000000
# Wavelength (microns) 
      12.987013000
# Solar zenithal angle (deg) 
60.000
#     ALTITUDE           PRESSION           FLUX DW          FLUX UP           FLUX DIR
#       (KM)               (hPa)             (W.M-2)          (W.M-2)          (W.M-2) 
     120.000000000       0.000040000       0.014742289       3.792624015       0.014742289
     115.000000000       0.000060000       0.014742289       3.792624015       0.014742289
     110.000000000       0.000110000       0.014742289       3.792624015       0.014742289
     105.000000000       0.000200000       0.014742289       3.792624015       0.014742289
     100.000000000       0.000410000       0.014742289       3.792624015       0.014742289
      95.000000000       0.000880000       0.014742289       3.792624015       0.014742289
      90.000000000       0.001980000       0.014742289       3.792624015       0.014742289
      85.000000000       0.004560000       0.014742289       3.792624015       0.014742289
      80.000000000       0.010300000       0.014742289       3.792624015       0.014742289
      75.000000000       0.022200000       0.014742289       3.792624015       0.014742289
      70.000000000       0.047000000       0.014742289       3.792624015       0.014742289
      65.000000000       0.095000000       0.014754925       3.792624357       0.014742230
      60.000000000       0.188000000       0.014832916       3.792612744       0.014741928
      55.000000000       0.362000000       0.015130265       3.792527490       0.014740962
      50.000000000       0.683000000       0.015994893       3.792206737       0.014738475
      47.500000000       0.940000000       0.016773492       3.791899121       0.014736311
      45.000000000       1.290000000       0.017752348       3.791547711       0.014733423
      42.500000000       1.800000000       0.018860074       3.791245501       0.014729730
      40.000000000       2.530000000       0.020133547       3.791043388       0.014724856
      37.500000000       3.600000000       0.021591888       3.791017340       0.014718397
      35.000000000       5.180000000       0.023251513       3.791278168       0.014709810
      32.500000000       7.560000000       0.025226954       3.792013693       0.014697748
      30.000000000      11.100000000       0.027916913       3.793511039       0.014679046
      27.500000000      16.460000000       0.031631188       3.795968582       0.014651475
      25.000000000      24.400000000       0.036672811       3.799610589       0.014612753
      24.000000000      28.600000000       0.039072777       3.801388939       0.014594158
      23.000000000      33.400000000       0.041657365       3.803324108       0.014574068
      22.000000000      39.100000000       0.044421142       3.805415909       0.014552517
      21.000000000      45.800000000       0.047359261       3.807664419       0.014529532
      20.000000000      53.700000000       0.050371243       3.809994147       0.014505892
      19.000000000      62.800000000       0.053315117       3.812292547       0.014482714
      18.000000000      73.600000000       0.056157914       3.814495852       0.014460419
      17.000000000      86.100000000       0.058917473       3.816583910       0.014439014
      16.000000000     100.700000000       0.061622533       3.818579483       0.014418270
      15.000000000     117.800000000       0.064345143       3.820536582       0.014397636
      14.000000000     137.800000000       0.067217214       3.822549076       0.014376133
      13.000000000     161.100000000       0.070324717       3.824671805       0.014353158
      12.000000000     188.200000000       0.073528866       3.826801881       0.014329760
      11.000000000     219.900000000       0.076673890       3.828830823       0.014307077
      10.000000000     256.800000000       0.079800656       3.830779112       0.014284824
       9.000000000     299.300000000       0.082319175       3.831997652       0.014268471
       8.000000000     347.300000000       1.569285919       5.236218615       0.002246004
       7.000000000     401.600000000       1.698382766       5.463888453       0.001840599
       6.000000000     462.700000000       1.712425247       5.479943478       0.001822670
       5.000000000     531.300000000       1.745764639       5.504208346       0.001789854
       4.000000000     608.100000000       1.814406500       5.536410717       0.001735894
       3.000000000     693.800000000       1.948755879       5.573969634       0.001649903
       2.000000000     789.700000000       2.168446165       5.608386100       0.001527540
       1.000000000     897.300000000       2.478925146       5.627652189       0.001369315
       0.000000000    1018.000000000       5.900429193       5.934364266       0.000000000
# Wavelength (microns) 
      13.333333000
# Solar zenithal angle (deg) 
60.000
#     ALTITUDE           PRESSION           FLUX DW          FLUX UP           FLUX DIR
#       (KM)               (hPa)             (W.M-2)          (W.M-2)          (W.M-2) 
     120.000000000       0.000040000       0.014001794       3.481117973       0.014001794
     115.000000000       0.000060000       0.014001794       3.481117973       0.014001794
     110.000000000       0.000110000       0.014001794       3.481117973       0.014001794
     105.000000000       0.000200000       0.014001794       3.481117973       0.014001794
     100.000000000       0.000410000       0.014001794       3.481117973       0.014001794
      95.000000000       0.000880000       0.014001794       3.481117973       0.014001794
      90.000000000       0.001980000       0.014001794       3.481117973       0.014001794
      85.000000000       0.004560000       0.014001794       3.481117973       0.014001794
      80.000000000       0.010300000       0.014001794       3.481117973       0.014001794
      75.000000000       0.022200000       0.014013141       3.481130379       0.014001719
      70.000000000       0.047000000       0.014142573       3.481216929       0.014001035
      65.000000000       0.095000000       0.014847965       3.481478032       0.013997980
      60.000000000       0.188000000       0.017056264       3.481807677       0.013989863
      55.000000000       0.362000000       0.022430215       3.481599930       0.013972646
      50.000000000       0.683000000       0.032881573       3.479138126       0.013942420
      47.500000000       0.940000000       0.039818395       3.476167041       0.013923227
      45.000000000       1.290000000       0.046473513       3.472223856       0.013903009
      42.500000000       1.800000000       0.051716437       3.468130136       0.013882881
      40.000000000       2.530000000       0.055654859       3.464145358       0.013862228
      37.500000000       3.600000000       0.058657840       3.460539396       0.013839589
      35.000000000       5.180000000       0.061227816       3.457814696       0.013812418
      32.500000000       7.560000000       0.064045759       3.456867718       0.013776404
      30.000000000      11.100000000       0.068697486       3.458167997       0.013724956
      27.500000000      16.460000000       0.077341643       3.461612718       0.013647867
      25.000000000      24.400000000       0.091985969       3.467702001       0.013532143
      24.000000000      28.600000000       0.099832200       3.470837822       0.013472896
      23.000000000      33.400000000       0.108911093       3.474362498       0.013405149
      22.000000000      39.100000000       0.119349508       3.478329207       0.013327524
      21.000000000      45.800000000       0.131290861       3.482809509       0.013238524
      20.000000000      53.700000000       0.144713970       3.487786880       0.013137879
      19.000000000      62.800000000       0.159596917       3.493269489       0.013025370
      18.000000000      73.600000000       0.176476706       3.499295134       0.012898546
      17.000000000      86.100000000       0.196020201       3.505851557       0.012753683
      16.000000000     100.700000000       0.218799651       3.513238099       0.012586765
      15.000000000     117.800000000       0.245343655       3.521860683       0.012395140
      14.000000000     137.800000000       0.276313792       3.532342525       0.012176065
      13.000000000     161.100000000       0.312385891       3.545528966       0.011927538
      12.000000000     188.200000000       0.353185497       3.562225660       0.011655533
      11.000000000     219.900000000       0.398314979       3.583950264       0.011366280
      10.000000000     256.800000000       0.448075429       3.614807516       0.011061094
       9.000000000     299.300000000       0.519374444       3.654322124       0.010716190
       8.000000000     347.300000000       1.867446314       4.741139332       0.001597665
       7.000000000     401.600000000       2.060572828       4.991023770       0.001249396
       6.000000000     462.700000000       2.202995956       5.116354602       0.001167684
       5.000000000     531.300000000       2.418146541       5.263599777       0.001062894
       4.000000000     608.100000000       2.722928435       5.428144694       0.000935365
       3.000000000     693.800000000       3.142706146       5.590562832       0.000786328
       2.000000000     789.700000000       3.631154961       5.718984061       0.000628633
       1.000000000     897.300000000       4.157560915       5.810560391       0.000476382
       0.000000000    1018.000000000       6.077521868       6.107265312       0.000000000
# Wavelength (microns) 
      13.698630000
# Solar zenithal angle (deg) 
60.000
#     ALTITUDE           PRESSION           FLUX DW          FLUX UP           FLUX DIR
#       (KM)               (hPa)             (W.M-2)          (W.M-2)          (W.M-2) 
     120.000000000       0.000040000       0.013278523       3.200976247       0.013278523
     115.000000000       0.000060000       0.013278523       3.200976247       0.013278523
     110.000000000       0.000110000       0.013278523       3.200976247       0.013278523
     105.000000000       0.000200000       0.013278523       3.200976247       0.013278523
     100.000000000       0.000410000       0.013278523       3.200976247       0.013278523
      95.000000000       0.000880000       0.013278523       3.200976247       0.013278523
      90.000000000       0.001980000       0.013278523       3.200976247       0.013278523
      85.000000000       0.004560000       0.013278523       3.200976247       0.013278523
      80.000000000       0.010300000       0.013279421       3.200977546       0.013278516
      75.000000000       0.022200000       0.013396519       3.201085159       0.013277815
      70.000000000       0.047000000       0.014547261       3.201747983       0.013272206
      65.000000000       0.095000000       0.019478740       3.203633462       0.013251538
      60.000000000       0.188000000       0.030378629       3.206603569       0.013213144
      55.000000000       0.362000000       0.047620685       3.209466433       0.013169295
      50.000000000       0.683000000       0.066846611       3.208705989       0.013138508
      47.500000000       0.940000000       0.074742219       3.204363058       0.013127257
      45.000000000       1.290000000       0.079033676       3.196741053       0.013113518
      42.500000000       1.800000000       0.081274743       3.188086759       0.013092652
      40.000000000       2.530000000       0.085306724       3.178916260       0.013059025
      37.500000000       3.600000000       0.092988926       3.169482922       0.013006032
      35.000000000       5.180000000       0.105264898       3.160536647       0.012923519
      32.500000000       7.560000000       0.123268785       3.153727081       0.012792921
      30.000000000      11.100000000       0.152390777       3.151608932       0.012580700
      27.500000000      16.460000000       0.198380329       3.152713993       0.012234631
      25.000000000      24.400000000       0.267536569       3.158461104       0.011715038
      24.000000000      28.600000000       0.300659791       3.161868784       0.011474670
      23.000000000      33.400000000       0.336048090       3.165879025       0.011227728
      22.000000000      39.100000000       0.372569771       3.170627213       0.010986527
      21.000000000      45.800000000       0.408541069       3.176313277       0.010765610
      20.000000000      53.700000000       0.442418647       3.183151924       0.010574095
      19.000000000      62.800000000       0.473524394       3.191804679       0.010410478
      18.000000000      73.600000000       0.503548654       3.202659569       0.010264228
      17.000000000      86.100000000       0.534266328       3.214538537       0.010118047
      16.000000000     100.700000000       0.567117953       3.227891026       0.009954167
      15.000000000     117.800000000       0.603919223       3.243270885       0.009758932
      14.000000000     137.800000000       0.646940917       3.261518331       0.009519995
      13.000000000     161.100000000       0.698594415       3.283814873       0.009225099
      12.000000000     188.200000000       0.760425683       3.311441817       0.008866925
      11.000000000     219.900000000       0.834059900       3.346853977       0.008438286
      10.000000000     256.800000000       0.921682566       3.403478216       0.007930053
       9.000000000     299.300000000       1.079699062       3.504587957       0.007316046
       8.000000000     347.300000000       2.235557025       4.339256031       0.001004205
       7.000000000     401.600000000       2.500187638       4.631921187       0.000719453
       6.000000000     462.700000000       2.759828680       4.861286844       0.000607149
       5.000000000     531.300000000       3.110708708       5.115872720       0.000492990
       4.000000000     608.100000000       3.556367170       5.387105099       0.000381671
       3.000000000     693.800000000       4.097424841       5.645733653       0.000276004
       2.000000000     789.700000000       4.636625512       5.835052250       0.000182136
       1.000000000     897.300000000       5.157187149       5.979484792       0.000107006
       0.000000000    1018.000000000       6.247829887       6.273359828       0.000000000
# Wavelength (microns) 
      14.084507000
# Solar zenithal angle (deg) 
60.000
#     ALTITUDE           PRESSION           FLUX DW          FLUX UP           FLUX DIR
#       (KM)               (hPa)             (W.M-2)          (W.M-2)          (W.M-2) 
     120.000000000       0.000040000       0.012573774       2.874378088       0.012573774
     115.000000000       0.000060000       0.012573774       2.874378088       0.012573774
     110.000000000       0.000110000       0.012573774       2.874378088       0.012573774
     105.000000000       0.000200000       0.012573774       2.874378088       0.012573774
     100.000000000       0.000410000       0.012573774       2.874378088       0.012573774
      95.000000000       0.000880000       0.012573774       2.874378088       0.012573774
      90.000000000       0.001980000       0.012573774       2.874378088       0.012573774
      85.000000000       0.004560000       0.012573774       2.874378088       0.012573774
      80.000000000       0.010300000       0.012575702       2.874380318       0.012573761
      75.000000000       0.022200000       0.012825074       2.874557128       0.012572416
      70.000000000       0.047000000       0.015186811       2.875582893       0.012561797
      65.000000000       0.095000000       0.024204732       2.878323264       0.012526558
      60.000000000       0.188000000       0.040703041       2.882462961       0.012477657
      55.000000000       0.362000000       0.060405230       2.886486074       0.012445569
      50.000000000       0.683000000       0.077906010       2.885843893       0.012426803
      47.500000000       0.940000000       0.085746377       2.880573025       0.012412822
      45.000000000       1.290000000       0.091234235       2.870511946       0.012391340
      42.500000000       1.800000000       0.097444516       2.858916086       0.012358488
      40.000000000       2.530000000       0.107952611       2.846462413       0.012307356
      37.500000000       3.600000000       0.123834470       2.833332897       0.012228562
      35.000000000       5.180000000       0.145750770       2.820478552       0.012108444
      32.500000000       7.560000000       0.174326650       2.809994638       0.011925844
      30.000000000      11.100000000       0.215819610       2.805118057       0.011644788
      27.500000000      16.460000000       0.276616665       2.803719433       0.011220655
      25.000000000      24.400000000       0.362045625       2.807213927       0.010644033
      24.000000000      28.600000000       0.401750581       2.809664615       0.010392625
      23.000000000      33.400000000       0.444200995       2.812709317       0.010137786
      22.000000000      39.100000000       0.489045376       2.816537782       0.009883114
      21.000000000      45.800000000       0.535901496       2.821436033       0.009628553
      20.000000000      53.700000000       0.584805354       2.827828410       0.009367062
      19.000000000      62.800000000       0.636712140       2.836770556       0.009084244
      18.000000000      73.600000000       0.695582927       2.848872597       0.008761571
      17.000000000      86.100000000       0.764793712       2.862636001       0.008380545
      16.000000000     100.700000000       0.846451454       2.878641405       0.007926936
      15.000000000     117.800000000       0.942193618       2.897670031       0.007396241
      14.000000000     137.800000000       1.053154428       2.920965340       0.006791142
      13.000000000     161.100000000       1.179459357       2.950563924       0.006122808
      12.000000000     188.200000000       1.318289667       2.989625972       0.005419375
      11.000000000     219.900000000       1.466432503       3.044975804       0.004708071
      10.000000000     256.800000000       1.621144392       3.142284083       0.004006597
       9.000000000     299.300000000       1.872368373       3.309935995       0.003299069
       8.000000000     347.300000000       2.728603826       3.855079841       0.000384856
       7.000000000     401.600000000       3.083613640       4.181796427       0.000231040
       6.000000000     462.700000000       3.491650011       4.508388404       0.000156296
       5.000000000     531.300000000       3.980773084       4.868295258       0.000096600
       4.000000000     608.100000000       4.528078052       5.255633497       0.000053929
       3.000000000     693.800000000       5.114534414       5.634809185       0.000026839
       2.000000000     789.700000000       5.571530398       5.898762533       0.000012060
       1.000000000     897.300000000       5.956409076       6.135888194       0.000004887
       0.000000000    1018.000000000       6.411755520       6.430795683       0.000000000
# Wavelength (microns) 
      14.492754000
# Solar zenithal angle (deg) 
60.000
#     ALTITUDE           PRESSION           FLUX DW          FLUX UP           FLUX DIR
#       (KM)               (hPa)             (W.M-2)          (W.M-2)          (W.M-2) 
     120.000000000       0.000040000       0.011889536       2.761017566       0.011889536
     115.000000000       0.000060000       0.011889536       2.761017566       0.011889536
     110.000000000       0.000110000       0.011889536       2.761017566       0.011889536
     105.000000000       0.000200000       0.011889536       2.761017566       0.011889536
     100.000000000       0.000410000       0.011889536       2.761017566       0.011889536
      95.000000000       0.000880000       0.011889536       2.761017566       0.011889536
      90.000000000       0.001980000       0.011889536       2.761017566       0.011889536
      85.000000000       0.004560000       0.011889536       2.761017566       0.011889536
      80.000000000       0.010300000       0.011936025       2.761040614       0.011889252
      75.000000000       0.022200000       0.016229523       2.762161538       0.011867004
      70.000000000       0.047000000       0.034564561       2.765923261       0.011791771
      65.000000000       0.095000000       0.051341799       2.772002340       0.011767321
      60.000000000       0.188000000       0.063175829       2.778700253       0.011758189
      55.000000000       0.362000000       0.082632724       2.783755683       0.011732011
      50.000000000       0.683000000       0.120336346       2.777069941       0.011661908
      47.500000000       0.940000000       0.150897011       2.764273788       0.011596795
      45.000000000       1.290000000       0.189041371       2.740909155       0.011496626
      42.500000000       1.800000000       0.239291189       2.712106261       0.011343566
      40.000000000       2.530000000       0.304565609       2.678332642       0.011110456
      37.500000000       3.600000000       0.383678845       2.639080932       0.010770024
      35.000000000       5.180000000       0.466765532       2.595874709       0.010320971
      32.500000000       7.560000000       0.531854230       2.556233706       0.009828489
      30.000000000      11.100000000       0.585720546       2.533948246       0.009369932
      27.500000000      16.460000000       0.667497455       2.519521354       0.008806490
      25.000000000      24.400000000       0.824823459       2.518268491       0.007863441
      24.000000000      28.600000000       0.911610680       2.519366870       0.007362539
      23.000000000      33.400000000       1.013270515       2.520890902       0.006785245
      22.000000000      39.100000000       1.128495988       2.523061076       0.006143752
      21.000000000      45.800000000       1.254737718       2.526270837       0.005461089
      20.000000000      53.700000000       1.388265993       2.531299529       0.004765387
      19.000000000      62.800000000       1.524907023       2.540306666       0.004080216
      18.000000000      73.600000000       1.668346511       2.557527121       0.003417696
      17.000000000      86.100000000       1.814671854       2.576098671       0.002779638
      16.000000000     100.700000000       1.960357231       2.596135268       0.002171697
      15.000000000     117.800000000       2.102198119       2.617768019       0.001614572
      14.000000000     137.800000000       2.236713231       2.641289910       0.001133810
      13.000000000     161.100000000       2.359767200       2.667413770       0.000747014
      12.000000000     188.200000000       2.467169889       2.697853225       0.000459885
      11.000000000     219.900000000       2.557348271       2.738617577       0.000264201
      10.000000000     256.800000000       2.631072642       2.834639965       0.000142105
       9.000000000     299.300000000       2.920269281       3.142762272       0.000070042
       8.000000000     347.300000000       3.342664656       3.522330599       0.000004315
       7.000000000     401.600000000       3.741289785       3.906103376       0.000001120
       6.000000000     462.700000000       4.177492133       4.314463456       0.000000235
       5.000000000     531.300000000       4.638836078       4.749085847       0.000000028
       4.000000000     608.100000000       5.120969645       5.209154042       0.000000002
       3.000000000     693.800000000       5.623205063       5.681027821       0.000000000
       2.000000000     789.700000000       5.941840389       5.975182698       0.000000000
       1.000000000     897.300000000       6.251033928       6.273166815       0.000000000
       0.000000000    1018.000000000       6.571450568       6.578617886       0.000000000
# Wavelength (microns) 
      14.925373000
# Solar zenithal angle (deg) 
60.000
#     ALTITUDE           PRESSION           FLUX DW          FLUX UP           FLUX DIR
#       (KM)               (hPa)             (W.M-2)          (W.M-2)          (W.M-2) 
     120.000000000       0.000040000       0.011217043       3.161160576       0.011217043
     115.000000000       0.000060000       0.011217043       3.161160576       0.011217043
     110.000000000       0.000110000       0.011217043       3.161160576       0.011217043
     105.000000000       0.000200000       0.011217043       3.161160576       0.011217043
     100.000000000       0.000410000       0.011217043       3.161160576       0.011217043
      95.000000000       0.000880000       0.011217043       3.161160576       0.011217043
      90.000000000       0.001980000       0.011217043       3.161160576       0.011217043
      85.000000000       0.004560000       0.011217043       3.161160576       0.011217043
      80.000000000       0.010300000       0.011429702       3.161225276       0.011215877
      75.000000000       0.022200000       0.025053164       3.163819385       0.011149889
      70.000000000       0.047000000       0.047516801       3.171071059       0.011094003
      65.000000000       0.095000000       0.069122886       3.183381011       0.011053836
      60.000000000       0.188000000       0.117583266       3.199833299       0.010948379
      55.000000000       0.362000000       0.227634100       3.214455803       0.010713841
      50.000000000       0.683000000       0.446249341       3.200544569       0.010265695
      47.500000000       0.940000000       0.592070248       3.164350377       0.009978571
      45.000000000       1.290000000       0.726781964       3.101091019       0.009681851
      42.500000000       1.800000000       0.810004070       3.026335248       0.009425754
      40.000000000       2.530000000       0.827490132       2.943911444       0.009233446
      37.500000000       3.600000000       0.805008305       2.853750712       0.009040199
      35.000000000       5.180000000       0.798916658       2.759283645       0.008720724
      32.500000000       7.560000000       0.845737969       2.669311120       0.008144573
      30.000000000      11.100000000       0.993884946       2.625275013       0.007197407
      27.500000000      16.460000000       1.218028858       2.596808158       0.005900905
      25.000000000      24.400000000       1.494341656       2.592209745       0.004509749
      24.000000000      28.600000000       1.608175272       2.592777265       0.003979584
      23.000000000      33.400000000       1.724915070       2.593606307       0.003437041
      22.000000000      39.100000000       1.844295835       2.594861716       0.002873871
      21.000000000      45.800000000       1.965530012       2.596868360       0.002301327
      20.000000000      53.700000000       2.086292176       2.600405530       0.001747466
      19.000000000      62.800000000       2.202199754       2.608987687       0.001244821
      18.000000000      73.600000000       2.321029730       2.631128838       0.000820282
      17.000000000      86.100000000       2.432530850       2.654192827       0.000487910
      16.000000000     100.700000000       2.529802065       2.678149639       0.000252330
      15.000000000     117.800000000       2.610364281       2.702903948       0.000108626
      14.000000000     137.800000000       2.674368480       2.728374836       0.000037136
      13.000000000     161.100000000       2.724153398       2.754559204       0.000009585
      12.000000000     188.200000000       2.763608614       2.781526841       0.000001757
      11.000000000     219.900000000       2.797164393       2.810448035       0.000000203
      10.000000000     256.800000000       2.828088302       2.872986158       0.000000012
       9.000000000     299.300000000       3.148374367       3.218563061       0.000000000
       8.000000000     347.300000000       3.536017483       3.595537938       0.000000000
       7.000000000     401.600000000       3.939691594       3.993335293       0.000000000
       6.000000000     462.700000000       4.368677101       4.414602504       0.000000000
       5.000000000     531.300000000       4.819828463       4.859042346       0.000000000
       4.000000000     608.100000000       5.292608152       5.326179036       0.000000000
       3.000000000     693.800000000       5.786966327       5.810109291       0.000000000
       2.000000000     789.700000000       6.091690324       6.105732249       0.000000000
       1.000000000     897.300000000       6.397072847       6.407602146       0.000000000
       0.000000000    1018.000000000       6.710639650       6.714663758       0.000000000
# Wavelength (microns) 
      15.384615000
# Solar zenithal angle (deg) 
60.000
#     ALTITUDE           PRESSION           FLUX DW          FLUX UP           FLUX DIR
#       (KM)               (hPa)             (W.M-2)          (W.M-2)          (W.M-2) 
     120.000000000       0.000040000       0.010571790       3.065097084       0.010571790
     115.000000000       0.000060000       0.010571790       3.065097084       0.010571790
     110.000000000       0.000110000       0.010571790       3.065097084       0.010571790
     105.000000000       0.000200000       0.010571790       3.065097084       0.010571790
     100.000000000       0.000410000       0.010571790       3.065097084       0.010571790
      95.000000000       0.000880000       0.010571790       3.065097084       0.010571790
      90.000000000       0.001980000       0.010571790       3.065097084       0.010571790
      85.000000000       0.004560000       0.010571790       3.065097084       0.010571790
      80.000000000       0.010300000       0.010628539       3.065122798       0.010571513
      75.000000000       0.022200000       0.015671649       3.066356923       0.010550244
      70.000000000       0.047000000       0.036114698       3.070446251       0.010481825
      65.000000000       0.095000000       0.054731694       3.077067321       0.010457938
      60.000000000       0.188000000       0.071459626       3.084268171       0.010439049
      55.000000000       0.362000000       0.103808447       3.088729881       0.010390901
      50.000000000       0.683000000       0.171004980       3.077237118       0.010275143
      47.500000000       0.940000000       0.224450201       3.058639532       0.010175203
      45.000000000       1.290000000       0.290272737       3.026894647       0.010029854
      42.500000000       1.800000000       0.370042319       2.988071839       0.009822533
      40.000000000       2.530000000       0.462358301       2.942711958       0.009537582
      37.500000000       3.600000000       0.555373149       2.890213584       0.009183163
      35.000000000       5.180000000       0.626869929       2.832499657       0.008810166
      32.500000000       7.560000000       0.664254295       2.779018179       0.008457792
      30.000000000      11.100000000       0.721922424       2.750058366       0.008016781
      27.500000000      16.460000000       0.861127397       2.731193390       0.007264310
      25.000000000      24.400000000       1.108446713       2.728777832       0.006077503
      24.000000000      28.600000000       1.230717380       2.729643558       0.005519477
      23.000000000      33.400000000       1.364454496       2.730878197       0.004930810
      22.000000000      39.100000000       1.505932766       2.732692341       0.004332497
      21.000000000      45.800000000       1.651143945       2.735484863       0.003740023
      20.000000000      53.700000000       1.796678457       2.740148363       0.003156702
      19.000000000      62.800000000       1.940075537       2.749665190       0.002580495
      18.000000000      73.600000000       2.089109737       2.769380221       0.002019600
      17.000000000      86.100000000       2.239829893       2.790303686       0.001496594
      16.000000000     100.700000000       2.385628438       2.812472577       0.001040305
      15.000000000     117.800000000       2.519881874       2.835853584       0.000673264
      14.000000000     137.800000000       2.637540563       2.860494379       0.000401676
      13.000000000     161.100000000       2.736097049       2.886719669       0.000218661
      12.000000000     188.200000000       2.815341031       2.915439811       0.000108318
      11.000000000     219.900000000       2.877771026       2.950846874       0.000048290
      10.000000000     256.800000000       2.927328304       3.037695708       0.000018409
       9.000000000     299.300000000       3.229463563       3.371827131       0.000005442
       8.000000000     347.300000000       3.634467666       3.753990295       0.000000157
       7.000000000     401.600000000       4.039770452       4.149082949       0.000000015
       6.000000000     462.700000000       4.474820060       4.566679224       0.000000001
       5.000000000     531.300000000       4.931356514       5.007386917       0.000000000
       4.000000000     608.100000000       5.407515982       5.470473871       0.000000000
       3.000000000     693.800000000       5.903144308       5.945427878       0.000000000
       2.000000000     789.700000000       6.213116331       6.238063360       0.000000000
       1.000000000     897.300000000       6.517613582       6.535015813       0.000000000
       0.000000000    1018.000000000       6.831356199       6.837397762       0.000000000
# Wavelength (microns) 
      15.873015000
# Solar zenithal angle (deg) 
60.000
#     ALTITUDE           PRESSION           FLUX DW          FLUX UP           FLUX DIR
#       (KM)               (hPa)             (W.M-2)          (W.M-2)          (W.M-2) 
     120.000000000       0.000040000       0.009939783       3.264010350       0.009939783
     115.000000000       0.000060000       0.009939783       3.264010350       0.009939783
     110.000000000       0.000110000       0.009939783       3.264010350       0.009939783
     105.000000000       0.000200000       0.009939783       3.264010350       0.009939783
     100.000000000       0.000410000       0.009939783       3.264010350       0.009939783
      95.000000000       0.000880000       0.009939783       3.264010350       0.009939783
      90.000000000       0.001980000       0.009939783       3.264010350       0.009939783
      85.000000000       0.004560000       0.009939783       3.264010350       0.009939783
      80.000000000       0.010300000       0.009943638       3.264013822       0.009939766
      75.000000000       0.022200000       0.010398292       3.264263657       0.009938147
      70.000000000       0.047000000       0.014280718       3.265586972       0.009926203
      65.000000000       0.095000000       0.027163149       3.268829175       0.009891421
      60.000000000       0.188000000       0.046970084       3.273412096       0.009853165
      55.000000000       0.362000000       0.066950658       3.277650406       0.009834174
      50.000000000       0.683000000       0.084396598       3.276813209       0.009819580
      47.500000000       0.940000000       0.093150604       3.271396910       0.009807166
      45.000000000       1.290000000       0.100277611       3.260857984       0.009788235
      42.500000000       1.800000000       0.109223480       3.248517457       0.009759421
      40.000000000       2.530000000       0.123844165       3.234969210       0.009714221
      37.500000000       3.600000000       0.146194212       3.220099825       0.009642108
      35.000000000       5.180000000       0.178286792       3.204648513       0.009526553
      32.500000000       7.560000000       0.221805429       3.190969108       0.009343259
      30.000000000      11.100000000       0.284419111       3.183272972       0.009060690
      27.500000000      16.460000000       0.370685470       3.179087337       0.008667682
      25.000000000      24.400000000       0.478329860       3.180212808       0.008219347
      24.000000000      28.600000000       0.524911556       3.181604317       0.008046467
      23.000000000      33.400000000       0.574230669       3.183470542       0.007872610
      22.000000000      39.100000000       0.627275978       3.186009457       0.007687481
      21.000000000      45.800000000       0.685638267       3.189532221       0.007477057
      20.000000000      53.700000000       0.751828243       3.194611529       0.007226014
      19.000000000      62.800000000       0.828949332       3.202850858       0.006921065
      18.000000000      73.600000000       0.922849524       3.215444260       0.006554067
      17.000000000      86.100000000       1.035988024       3.230002281       0.006122450
      16.000000000     100.700000000       1.168009209       3.247065113       0.005630079
      15.000000000     117.800000000       1.317014521       3.267320835       0.005092202
      14.000000000     137.800000000       1.480205783       3.291894582       0.004528733
      13.000000000     161.100000000       1.654314666       3.322849414       0.003959041
      12.000000000     188.200000000       1.833945554       3.363888980       0.003402560
      11.000000000     219.900000000       2.014981774       3.423851948       0.002866343
      10.000000000     256.800000000       2.195109556       3.537496442       0.002349916
       9.000000000     299.300000000       2.492305016       3.746839908       0.001849686
       8.000000000     347.300000000       3.311561127       4.254894022       0.000193002
       7.000000000     401.600000000       3.704515678       4.602567835       0.000110161
       6.000000000     462.700000000       4.146906308       4.955565528       0.000072290
       5.000000000     531.300000000       4.650413006       5.337115457       0.000044643
       4.000000000     608.100000000       5.191864696       5.742109418       0.000026265
       3.000000000     693.800000000       5.757411044       6.138684867       0.000014518
       2.000000000     789.700000000       6.174847660       6.407076472       0.000007250
       1.000000000     897.300000000       6.528939479       6.655334159       0.000003042
       0.000000000    1018.000000000       6.929331761       6.945047843       0.000000000
# Wavelength (microns) 
      16.393442000
# Solar zenithal angle (deg) 
60.000
#     ALTITUDE           PRESSION           FLUX DW          FLUX UP           FLUX DIR
#       (KM)               (hPa)             (W.M-2)          (W.M-2)          (W.M-2) 
     120.000000000       0.000040000       0.009326506       3.820906375       0.009326506
     115.000000000       0.000060000       0.009326506       3.820906375       0.009326506
     110.000000000       0.000110000       0.009326506       3.820906375       0.009326506
     105.000000000       0.000200000       0.009326506       3.820906375       0.009326506
     100.000000000       0.000410000       0.009326506       3.820906375       0.009326506
      95.000000000       0.000880000       0.009326506       3.820906375       0.009326506
      90.000000000       0.001980000       0.009326506       3.820906375       0.009326506
      85.000000000       0.004560000       0.009326506       3.820906375       0.009326506
      80.000000000       0.010300000       0.009327788       3.820907794       0.009326501
      75.000000000       0.022200000       0.009489246       3.821023826       0.009325985
      70.000000000       0.047000000       0.011037630       3.821727067       0.009321804
      65.000000000       0.095000000       0.017431327       3.823689481       0.009306424
      60.000000000       0.188000000       0.031002393       3.826708512       0.009278175
      55.000000000       0.362000000       0.051401625       3.829499353       0.009246812
      50.000000000       0.683000000       0.073066235       3.828438404       0.009225382
      47.500000000       0.940000000       0.081912565       3.823850172       0.009217206
      45.000000000       1.290000000       0.087136062       3.815916572       0.009207200
      42.500000000       1.800000000       0.090340972       3.806968999       0.009192893
      40.000000000       2.530000000       0.095417130       3.797473661       0.009171023
      37.500000000       3.600000000       0.104711020       3.787431508       0.009136672
      35.000000000       5.180000000       0.119981871       3.777307727       0.009081612
      32.500000000       7.560000000       0.143003310       3.768630841       0.008992051
      30.000000000      11.100000000       0.180567806       3.764051493       0.008843269
      27.500000000      16.460000000       0.239176449       3.761802441       0.008604603
      25.000000000      24.400000000       0.322922221       3.763056552       0.008270844
      24.000000000      28.600000000       0.361148365       3.764252956       0.008127140
      23.000000000      33.400000000       0.400978783       3.765852467       0.007985935
      22.000000000      39.100000000       0.441319421       3.768022544       0.007853353
      21.000000000      45.800000000       0.480795415       3.771016105       0.007734373
      20.000000000      53.700000000       0.518783989       3.775283168       0.007627977
      19.000000000      62.800000000       0.555939195       3.781931096       0.007526440
      18.000000000      73.600000000       0.595446596       3.791623072       0.007419043
      17.000000000      86.100000000       0.640182018       3.803039000       0.007293678
      16.000000000     100.700000000       0.692413556       3.816705352       0.007138938
      15.000000000     117.800000000       0.754724118       3.833252786       0.006945778
      14.000000000     137.800000000       0.829953518       3.853593356       0.006706033
      13.000000000     161.100000000       0.921138889       3.879176336       0.006411529
      12.000000000     188.200000000       1.030492920       3.912072098       0.006057402
      11.000000000     219.900000000       1.159979929       3.956180232       0.005640888
      10.000000000     256.800000000       1.311904927       4.028645480       0.005159846
       9.000000000     299.300000000       1.553495521       4.151971112       0.004605359
       8.000000000     347.300000000       2.884723265       4.893227150       0.000547681
       7.000000000     401.600000000       3.228691049       5.195031839       0.000370872
       6.000000000     462.700000000       3.583544592       5.457455227       0.000295522
       5.000000000     531.300000000       4.037477415       5.747159561       0.000222516
       4.000000000     608.100000000       4.580926269       6.056050649       0.000154876
       3.000000000     693.800000000       5.208633962       6.355124220       0.000095226
       2.000000000     789.700000000       5.785467620       6.572556847       0.000049492
       1.000000000     897.300000000       6.295158146       6.751368258       0.000021065
       0.000000000    1018.000000000       7.016308283       7.036291782       0.000000000
# Wavelength (microns) 
      16.949152000
# Solar zenithal angle (deg) 
60.000
#     ALTITUDE           PRESSION           FLUX DW          FLUX UP           FLUX DIR
#       (KM)               (hPa)             (W.M-2)          (W.M-2)          (W.M-2) 
     120.000000000       0.000040000       0.008733444       4.287437859       0.008733444
     115.000000000       0.000060000       0.008733444       4.287437859       0.008733444
     110.000000000       0.000110000       0.008733444       4.287437859       0.008733444
     105.000000000       0.000200000       0.008733444       4.287437859       0.008733444
     100.000000000       0.000410000       0.008733444       4.287437859       0.008733444
      95.000000000       0.000880000       0.008733444       4.287437859       0.008733444
      90.000000000       0.001980000       0.008733444       4.287437859       0.008733444
      85.000000000       0.004560000       0.008733444       4.287437859       0.008733444
      80.000000000       0.010300000       0.008733444       4.287437859       0.008733444
      75.000000000       0.022200000       0.008753720       4.287454130       0.008733385
      70.000000000       0.047000000       0.008974535       4.287559192       0.008732855
      65.000000000       0.095000000       0.010080611       4.287848183       0.008730581
      60.000000000       0.188000000       0.013250521       4.288163693       0.008724824
      55.000000000       0.362000000       0.020420607       4.287811812       0.008713070
      50.000000000       0.683000000       0.033718303       4.284982837       0.008692974
      47.500000000       0.940000000       0.042389681       4.281736327       0.008680390
      45.000000000       1.290000000       0.050833462       4.277448182       0.008667243
      42.500000000       1.800000000       0.057707355       4.272924639       0.008654412
      40.000000000       2.530000000       0.062949570       4.268388259       0.008641856
      37.500000000       3.600000000       0.066863626       4.264012943       0.008629001
      35.000000000       5.180000000       0.070045491       4.260166470       0.008614476
      32.500000000       7.560000000       0.073330840       4.257626717       0.008595959
      30.000000000      11.100000000       0.078992200       4.256744254       0.008569091
      27.500000000      16.460000000       0.089893595       4.257108375       0.008527253
      25.000000000      24.400000000       0.109033686       4.259089787       0.008461036
      24.000000000      28.600000000       0.119664753       4.260337255       0.008425461
      23.000000000      33.400000000       0.132468818       4.261924445       0.008382924
      22.000000000      39.100000000       0.147789055       4.263959738       0.008332084
      21.000000000      45.800000000       0.166007368       4.266585589       0.008271527
      20.000000000      53.700000000       0.187558694       4.270005027       0.008199749
      19.000000000      62.800000000       0.212988450       4.274560878       0.008114995
      18.000000000      73.600000000       0.243166897       4.280426471       0.008015756
      17.000000000      86.100000000       0.278953461       4.287561415       0.007900600
      16.000000000     100.700000000       0.321077473       4.296347535       0.007767952
      15.000000000     117.800000000       0.369896237       4.307209253       0.007617910
      14.000000000     137.800000000       0.425744353       4.320761912       0.007450914
      13.000000000     161.100000000       0.489272897       4.338028052       0.007266606
      12.000000000     188.200000000       0.560416787       4.360367066       0.007066650
      11.000000000     219.900000000       0.639910202       4.390302207       0.006849864
      10.000000000     256.800000000       0.732503629       4.434588071       0.006602686
       9.000000000     299.300000000       0.866972350       4.490824730       0.006298846
       8.000000000     347.300000000       2.572850989       5.428413944       0.000804956
       7.000000000     401.600000000       2.858439073       5.674988745       0.000596364
       6.000000000     462.700000000       3.123570214       5.843113134       0.000523349
       5.000000000     531.300000000       3.500699325       6.042627616       0.000438932
       4.000000000     608.100000000       4.000581517       6.267608240       0.000345066
       3.000000000     693.800000000       4.653153135       6.499010408       0.000244306
       2.000000000     789.700000000       5.341162842       6.679623415       0.000149600
       1.000000000     897.300000000       5.996256684       6.825049074       0.000076927
       0.000000000    1018.000000000       7.088472503       7.109314822       0.000000000
# Wavelength (microns) 
      17.543859000
# Solar zenithal angle (deg) 
60.000
#     ALTITUDE           PRESSION           FLUX DW          FLUX UP           FLUX DIR
#       (KM)               (hPa)             (W.M-2)          (W.M-2)          (W.M-2) 
     120.000000000       0.000040000       0.008158819       4.750382840       0.008158819
     115.000000000       0.000060000       0.008158819       4.750382840       0.008158819
     110.000000000       0.000110000       0.008158819       4.750382840       0.008158819
     105.000000000       0.000200000       0.008158819       4.750382840       0.008158819
     100.000000000       0.000410000       0.008158819       4.750382840       0.008158819
      95.000000000       0.000880000       0.008158819       4.750382840       0.008158819
      90.000000000       0.001980000       0.008158819       4.750382840       0.008158819
      85.000000000       0.004560000       0.008158819       4.750382840       0.008158819
      80.000000000       0.010300000       0.008158819       4.750382840       0.008158819
      75.000000000       0.022200000       0.008159445       4.750383079       0.008158817
      70.000000000       0.047000000       0.008168676       4.750384066       0.008158797
      65.000000000       0.095000000       0.008222233       4.750380893       0.008158698
      60.000000000       0.188000000       0.008419746       4.750344194       0.008158382
      55.000000000       0.362000000       0.008983587       4.750180778       0.008157590
      50.000000000       0.683000000       0.010334277       4.749688348       0.008155852
      47.500000000       0.940000000       0.011422715       4.749255119       0.008154477
      45.000000000       1.290000000       0.012700292       4.748761457       0.008152770
      42.500000000       1.800000000       0.014020309       4.748310790       0.008150807
      40.000000000       2.530000000       0.015345564       4.747941770       0.008148580
      37.500000000       3.600000000       0.016676461       4.747682734       0.008146037
      35.000000000       5.180000000       0.017999580       4.747569063       0.008143136
      32.500000000       7.560000000       0.019342266       4.747644751       0.008139738
      30.000000000      11.100000000       0.020905529       4.747937376       0.008135362
      27.500000000      16.460000000       0.022999458       4.748488375       0.008129274
      25.000000000      24.400000000       0.026009900       4.749410191       0.008120476
      24.000000000      28.600000000       0.027563052       4.749904446       0.008115970
      23.000000000      33.400000000       0.029385421       4.750494693       0.008110716
      22.000000000      39.100000000       0.031521064       4.751197313       0.008104600
      21.000000000      45.800000000       0.034022663       4.752033920       0.008097473
      20.000000000      53.700000000       0.036948862       4.753030113       0.008089165
      19.000000000      62.800000000       0.040372690       4.754217091       0.008079481
      18.000000000      73.600000000       0.044405916       4.755614775       0.008068164
      17.000000000      86.100000000       0.049184409       4.757239647       0.008054914
      16.000000000     100.700000000       0.054856349       4.759131623       0.008039370
      15.000000000     117.800000000       0.061593372       4.761337954       0.008021109
      14.000000000     137.800000000       0.069585998       4.763913149       0.007999673
      13.000000000     161.100000000       0.079091135       4.766926282       0.007974448
      12.000000000     188.200000000       0.090609963       4.770491286       0.007944170
      11.000000000     219.900000000       0.105643035       4.774913005       0.007905003
      10.000000000     256.800000000       0.130690405       4.781728054       0.007840497
       9.000000000     299.300000000       0.176660207       4.791755024       0.007732806
       8.000000000     347.300000000       2.251632509       5.922194341       0.001015968
       7.000000000     401.600000000       2.483314825       6.117931443       0.000789811
       6.000000000     462.700000000       2.638046192       6.194491797       0.000734543
       5.000000000     531.300000000       2.906561190       6.305570312       0.000655815
       4.000000000     608.100000000       3.330310549       6.449058733       0.000550810
       3.000000000     693.800000000       3.989620870       6.617306363       0.000413973
       2.000000000     789.700000000       4.794442224       6.762082768       0.000267676
       1.000000000     897.300000000       5.615360048       6.877215429       0.000144604
       0.000000000    1018.000000000       7.141144494       7.162242257       0.000000000
# Wavelength (microns) 
      18.181818000
# Solar zenithal angle (deg) 
60.000
#     ALTITUDE           PRESSION           FLUX DW          FLUX UP           FLUX DIR
#       (KM)               (hPa)             (W.M-2)          (W.M-2)          (W.M-2) 
     120.000000000       0.000040000       0.007603230       4.872537096       0.007603230
     115.000000000       0.000060000       0.007603230       4.872537096       0.007603230
     110.000000000       0.000110000       0.007603230       4.872537096       0.007603230
     105.000000000       0.000200000       0.007603230       4.872537096       0.007603230
     100.000000000       0.000410000       0.007603230       4.872537096       0.007603230
      95.000000000       0.000880000       0.007603230       4.872537096       0.007603230
      90.000000000       0.001980000       0.007603230       4.872537096       0.007603230
      85.000000000       0.004560000       0.007603230       4.872537096       0.007603230
      80.000000000       0.010300000       0.007603230       4.872537096       0.007603230
      75.000000000       0.022200000       0.007603230       4.872537096       0.007603230
      70.000000000       0.047000000       0.007604916       4.872537008       0.007603227
      65.000000000       0.095000000       0.007621630       4.872535131       0.007603199
      60.000000000       0.188000000       0.007680797       4.872521963       0.007603112
      55.000000000       0.362000000       0.007851070       4.872468926       0.007602892
      50.000000000       0.683000000       0.008261549       4.872316973       0.007602409
      47.500000000       0.940000000       0.008597473       4.872186335       0.007602023
      45.000000000       1.290000000       0.009002642       4.872037387       0.007601536
      42.500000000       1.800000000       0.009437872       4.871898963       0.007600963
      40.000000000       2.530000000       0.009891995       4.871781978       0.007600297
      37.500000000       3.600000000       0.010356533       4.871694454       0.007599533
      35.000000000       5.180000000       0.010824506       4.871643924       0.007598661
      32.500000000       7.560000000       0.011293439       4.871638170       0.007597659
      30.000000000      11.100000000       0.011815421       4.871675490       0.007596417
      27.500000000      16.460000000       0.012473261       4.871754571       0.007594757
      25.000000000      24.400000000       0.013360936       4.871889035       0.007592444
      24.000000000      28.600000000       0.013801492       4.871960505       0.007591286
      23.000000000      33.400000000       0.014302861       4.872044596       0.007589962
      22.000000000      39.100000000       0.014874266       4.872143914       0.007588450
      21.000000000      45.800000000       0.015530842       4.872263175       0.007586708
      20.000000000      53.700000000       0.016298478       4.872411681       0.007584672
      19.000000000      62.800000000       0.017186546       4.872592356       0.007582316
      18.000000000      73.600000000       0.018233563       4.872811354       0.007579559
      17.000000000      86.100000000       0.019479472       4.873070337       0.007576325
      16.000000000     100.700000000       0.020975539       4.873378756       0.007572499
      15.000000000     117.800000000       0.022787201       4.873748751       0.007567937
      14.000000000     137.800000000       0.024982733       4.874193220       0.007562496
      13.000000000     161.100000000       0.027670622       4.874732118       0.007555942
      12.000000000     188.200000000       0.031191404       4.875424940       0.007547483
      11.000000000     219.900000000       0.036892417       4.876512971       0.007533947
      10.000000000     256.800000000       0.051526604       4.879412367       0.007499528
       9.000000000     299.300000000       0.085609434       4.885092163       0.007425812
       8.000000000     347.300000000       2.216029191       6.014195138       0.000965680
       7.000000000     401.600000000       2.448115014       6.197966614       0.000753690
       6.000000000     462.700000000       2.600328244       6.264085231       0.000704705
       5.000000000     531.300000000       2.867631617       6.365612288       0.000633183
       4.000000000     608.100000000       3.289717453       6.500489105       0.000536800
       3.000000000     693.800000000       3.947490617       6.661836825       0.000409673
       2.000000000     789.700000000       4.751168084       6.801114708       0.000271317
       1.000000000     897.300000000       5.576271706       6.912294196       0.000151357
       0.000000000    1018.000000000       7.173225377       7.193506115       0.000000000
# Wavelength (microns) 
      18.867924000
# Solar zenithal angle (deg) 
60.000
#     ALTITUDE           PRESSION           FLUX DW          FLUX UP           FLUX DIR
#       (KM)               (hPa)             (W.M-2)          (W.M-2)          (W.M-2) 
     120.000000000       0.000040000       0.007065925       4.967501473       0.007065925
     115.000000000       0.000060000       0.007065925       4.967501473       0.007065925
     110.000000000       0.000110000       0.007065925       4.967501473       0.007065925
     105.000000000       0.000200000       0.007065925       4.967501473       0.007065925
     100.000000000       0.000410000       0.007065925       4.967501473       0.007065925
      95.000000000       0.000880000       0.007065925       4.967501473       0.007065925
      90.000000000       0.001980000       0.007065925       4.967501473       0.007065925
      85.000000000       0.004560000       0.007065925       4.967501473       0.007065925
      80.000000000       0.010300000       0.007065925       4.967501473       0.007065925
      75.000000000       0.022200000       0.007066280       4.967501518       0.007065924
      70.000000000       0.047000000       0.007070418       4.967501331       0.007065917
      65.000000000       0.095000000       0.007094009       4.967497073       0.007065880
      60.000000000       0.188000000       0.007170141       4.967475216       0.007065778
      55.000000000       0.362000000       0.007388396       4.967396273       0.007065517
      50.000000000       0.683000000       0.007882572       4.967187553       0.007064976
      47.500000000       0.940000000       0.008279276       4.967010304       0.007064550
      45.000000000       1.290000000       0.008771923       4.966796508       0.007063995
      42.500000000       1.800000000       0.009332871       4.966574615       0.007063298
      40.000000000       2.530000000       0.009954472       4.966359154       0.007062433
      37.500000000       3.600000000       0.010629921       4.966165261       0.007061368
      35.000000000       5.180000000       0.011348730       4.966013241       0.007060066
      32.500000000       7.560000000       0.012098539       4.965929464       0.007058486
      30.000000000      11.100000000       0.012933450       4.965913795       0.007056501
      27.500000000      16.460000000       0.013952153       4.965950192       0.007053916
      25.000000000      24.400000000       0.015259798       4.966040901       0.007050487
      24.000000000      28.600000000       0.015887331       4.966091317       0.007048830
      23.000000000      33.400000000       0.016586356       4.966151236       0.007046984
      22.000000000      39.100000000       0.017367117       4.966223743       0.007044924
      21.000000000      45.800000000       0.018238776       4.966311482       0.007042629
      20.000000000      53.700000000       0.019214021       4.966418888       0.007040068
      19.000000000      62.800000000       0.020302799       4.966551687       0.007037224
      18.000000000      73.600000000       0.021537121       4.966710768       0.007034049
      17.000000000      86.100000000       0.022948536       4.966891394       0.007030509
      16.000000000     100.700000000       0.024578241       4.967101485       0.007026535
      15.000000000     117.800000000       0.026458858       4.967344216       0.007022083
      14.000000000     137.800000000       0.028620486       4.967625690       0.007017130
      13.000000000     161.100000000       0.031121178       4.967956317       0.007011604
      12.000000000     188.200000000       0.034246441       4.968377371       0.007004967
      11.000000000     219.900000000       0.039142627       4.969070489       0.006995040
      10.000000000     256.800000000       0.050813140       4.971283690       0.006972809
       9.000000000     299.300000000       0.075547141       4.976484320       0.006931360
       8.000000000     347.300000000       2.210740489       6.111788777       0.000906772
       7.000000000     401.600000000       2.429723369       6.289094433       0.000713942
       6.000000000     462.700000000       2.551915387       6.344059451       0.000677393
       5.000000000     531.300000000       2.782727121       6.431283682       0.000617715
       4.000000000     608.100000000       3.173791116       6.550220115       0.000531489
       3.000000000     693.800000000       3.823953130       6.695901390       0.000406940
       2.000000000     789.700000000       4.672169346       6.825889979       0.000264158
       1.000000000     897.300000000       5.559780758       6.926314351       0.000139747
       0.000000000    1018.000000000       7.181011382       7.200952386       0.000000000
# Wavelength (microns) 
      19.607843000
# Solar zenithal angle (deg) 
60.000
#     ALTITUDE           PRESSION           FLUX DW          FLUX UP           FLUX DIR
#       (KM)               (hPa)             (W.M-2)          (W.M-2)          (W.M-2) 
     120.000000000       0.000040000       0.006548555       4.793778588       0.006548555
     115.000000000       0.000060000       0.006548555       4.793778588       0.006548555
     110.000000000       0.000110000       0.006548555       4.793778588       0.006548555
     105.000000000       0.000200000       0.006548555       4.793778588       0.006548555
     100.000000000       0.000410000       0.006548555       4.793778588       0.006548555
      95.000000000       0.000880000       0.006548555       4.793778588       0.006548555
      90.000000000       0.001980000       0.006548555       4.793778588       0.006548555
      85.000000000       0.004560000       0.006548555       4.793778588       0.006548555
      80.000000000       0.010300000       0.006548555       4.793778588       0.006548555
      75.000000000       0.022200000       0.006549201       4.793778700       0.006548554
      70.000000000       0.047000000       0.006556778       4.793778684       0.006548542
      65.000000000       0.095000000       0.006600592       4.793772593       0.006548480
      60.000000000       0.188000000       0.006744383       4.793736926       0.006548301
      55.000000000       0.362000000       0.007126944       4.793607053       0.006547878
      50.000000000       0.683000000       0.007992753       4.793253165       0.006546993
      47.500000000       0.940000000       0.008683477       4.792946938       0.006546297
      45.000000000       1.290000000       0.009531343       4.792573979       0.006545394
      42.500000000       1.800000000       0.010481178       4.792182940       0.006544271
      40.000000000       2.530000000       0.011515457       4.791796710       0.006542887
      37.500000000       3.600000000       0.012619198       4.791439168       0.006541195
      35.000000000       5.180000000       0.013777003       4.791143836       0.006539132
      32.500000000       7.560000000       0.014968844       4.790959420       0.006536628
      30.000000000      11.100000000       0.016290567       4.790888108       0.006533479
      27.500000000      16.460000000       0.017911123       4.790899738       0.006529398
      25.000000000      24.400000000       0.020012375       4.791001194       0.006524050
      24.000000000      28.600000000       0.021010499       4.791060632       0.006521536
      23.000000000      33.400000000       0.022125331       4.791136168       0.006518768
      22.000000000      39.100000000       0.023367681       4.791232048       0.006515729
      21.000000000      45.800000000       0.024750847       4.791353585       0.006512402
      20.000000000      53.700000000       0.026293103       4.791509239       0.006508762
      19.000000000      62.800000000       0.028020743       4.791713534       0.006504773
      18.000000000      73.600000000       0.029984072       4.791964828       0.006500395
      17.000000000      86.100000000       0.032245753       4.792252475       0.006495571
      16.000000000     100.700000000       0.034886078       4.792586591       0.006490179
      15.000000000     117.800000000       0.038014924       4.792980217       0.006484046
      14.000000000     137.800000000       0.041753219       4.793446876       0.006476970
      13.000000000     161.100000000       0.046310054       4.794008996       0.006468562
      12.000000000     188.200000000       0.052394080       4.794751117       0.006457496
      11.000000000     219.900000000       0.062864630       4.796057439       0.006438444
      10.000000000     256.800000000       0.091574970       4.800566921       0.006384992
       9.000000000     299.300000000       0.158540207       4.811201962       0.006269070
       8.000000000     347.300000000       2.289608537       5.728341521       0.000800611
       7.000000000     401.600000000       2.580020078       5.892586244       0.000605693
       6.000000000     462.700000000       2.863624824       5.993982329       0.000531962
       5.000000000     531.300000000       3.333573668       6.145429487       0.000429620
       4.000000000     608.100000000       4.005404192       6.342073594       0.000310787
       3.000000000     693.800000000       4.893450278       6.573193260       0.000186066
       2.000000000     789.700000000       5.744077745       6.758705744       0.000087625
       1.000000000     897.300000000       6.426747437       6.926897226       0.000031410
       0.000000000    1018.000000000       7.168432011       7.183399885       0.000000000
