###############################################################
#  K-distribution characterization file to be used in ARTDECO
################################################################
#            GAME LW  coefficients  
# Maximum encounter number of (ai,ki) over the different bands and species (this will serve as an array dimension)
  10
#################################
# Number of gas species
   4
# gas species    concentration dependency (0/1)            add continuum  
       h2o               0               continuum_flag
       co2               0               continuum_flag
        o3               0               continuum_flag
        n2               0               continuum_flag
#################################
#      WAVELENGTH BANDS
# number of bands :
 249
# band  center, min, max wavelengths (microns)
  1      4.0080      4.0000      4.0161
  2      4.0241      4.0161      4.0323
  3      4.0404      4.0323      4.0486
  4      4.0568      4.0486      4.0650
  5      4.0733      4.0650      4.0816
  6      4.0900      4.0816      4.0984
  7      4.1068      4.0984      4.1152
  8      4.1237      4.1152      4.1322
  9      4.1408      4.1322      4.1494
 10      4.1580      4.1494      4.1667
 11      4.1754      4.1667      4.1841
 12      4.1929      4.1841      4.2017
 13      4.2105      4.2017      4.2194
 14      4.2283      4.2194      4.2373
 15      4.2463      4.2373      4.2553
 16      4.2644      4.2553      4.2735
 17      4.2827      4.2735      4.2918
 18      4.3011      4.2918      4.3103
 19      4.3197      4.3103      4.3290
 20      4.3384      4.3290      4.3478
 21      4.3573      4.3478      4.3668
 22      4.3764      4.3668      4.3860
 23      4.3956      4.3860      4.4053
 24      4.4150      4.4053      4.4248
 25      4.4346      4.4248      4.4444
 26      4.4543      4.4444      4.4643
 27      4.4743      4.4643      4.4843
 28      4.4944      4.4843      4.5045
 29      4.5147      4.5045      4.5249
 30      4.5351      4.5249      4.5455
 31      4.5558      4.5455      4.5662
 32      4.5767      4.5662      4.5872
 33      4.5977      4.5872      4.6083
 34      4.6189      4.6083      4.6296
 35      4.6404      4.6296      4.6512
 36      4.6620      4.6512      4.6729
 37      4.6838      4.6729      4.6948
 38      4.7059      4.6948      4.7170
 39      4.7281      4.7170      4.7393
 40      4.7506      4.7393      4.7619
 41      4.7733      4.7619      4.7847
 42      4.7962      4.7847      4.8077
 43      4.8193      4.8077      4.8309
 44      4.8426      4.8309      4.8544
 45      4.8662      4.8544      4.8780
 46      4.8900      4.8780      4.9020
 47      4.9140      4.9020      4.9261
 48      4.9383      4.9261      4.9505
 49      4.9628      4.9505      4.9751
 50      4.9875      4.9751      5.0000
 51      5.0125      5.0000      5.0251
 52      5.0378      5.0251      5.0505
 53      5.0633      5.0505      5.0761
 54      5.0891      5.0761      5.1020
 55      5.1151      5.1020      5.1282
 56      5.1414      5.1282      5.1546
 57      5.1680      5.1546      5.1813
 58      5.1948      5.1813      5.2083
 59      5.2219      5.2083      5.2356
 60      5.2493      5.2356      5.2632
 61      5.2770      5.2632      5.2910
 62      5.3050      5.2910      5.3191
 63      5.3333      5.3191      5.3476
 64      5.3619      5.3476      5.3763
 65      5.3908      5.3763      5.4054
 66      5.4201      5.4054      5.4348
 67      5.4496      5.4348      5.4645
 68      5.4795      5.4645      5.4945
 69      5.5096      5.4945      5.5249
 70      5.5402      5.5249      5.5556
 71      5.5710      5.5556      5.5866
 72      5.6022      5.5866      5.6180
 73      5.6338      5.6180      5.6497
 74      5.6657      5.6497      5.6818
 75      5.6980      5.6818      5.7143
 76      5.7307      5.7143      5.7471
 77      5.7637      5.7471      5.7803
 78      5.7971      5.7803      5.8140
 79      5.8309      5.8140      5.8480
 80      5.8651      5.8480      5.8824
 81      5.8997      5.8824      5.9172
 82      5.9347      5.9172      5.9524
 83      5.9701      5.9524      5.9880
 84      6.0060      5.9880      6.0241
 85      6.0423      6.0241      6.0606
 86      6.0790      6.0606      6.0976
 87      6.1162      6.0976      6.1350
 88      6.1538      6.1350      6.1728
 89      6.1920      6.1728      6.2112
 90      6.2305      6.2112      6.2500
 91      6.2696      6.2500      6.2893
 92      6.3091      6.2893      6.3291
 93      6.3492      6.3291      6.3694
 94      6.3898      6.3694      6.4103
 95      6.4309      6.4103      6.4516
 96      6.4725      6.4516      6.4935
 97      6.5147      6.4935      6.5359
 98      6.5574      6.5359      6.5789
 99      6.6007      6.5789      6.6225
100      6.6445      6.6225      6.6667
101      6.6890      6.6667      6.7114
102      6.7340      6.7114      6.7568
103      6.7797      6.7568      6.8027
104      6.8259      6.8027      6.8493
105      6.8729      6.8493      6.8966
106      6.9204      6.8966      6.9444
107      6.9686      6.9444      6.9930
108      7.0175      6.9930      7.0423
109      7.0671      7.0423      7.0922
110      7.1174      7.0922      7.1429
111      7.1685      7.1429      7.1942
112      7.2202      7.1942      7.2464
113      7.2727      7.2464      7.2993
114      7.3260      7.2993      7.3529
115      7.3801      7.3529      7.4074
116      7.4349      7.4074      7.4627
117      7.4906      7.4627      7.5188
118      7.5472      7.5188      7.5758
119      7.6046      7.5758      7.6336
120      7.6628      7.6336      7.6923
121      7.7220      7.6923      7.7519
122      7.7821      7.7519      7.8125
123      7.8431      7.8125      7.8740
124      7.9051      7.8740      7.9365
125      7.9681      7.9365      8.0000
126      8.0321      8.0000      8.0645
127      8.0972      8.0645      8.1301
128      8.1633      8.1301      8.1967
129      8.2305      8.1967      8.2645
130      8.2988      8.2645      8.3333
131      8.3682      8.3333      8.4034
132      8.4388      8.4034      8.4746
133      8.5106      8.4746      8.5470
134      8.5837      8.5470      8.6207
135      8.6580      8.6207      8.6957
136      8.7336      8.6957      8.7719
137      8.8106      8.7719      8.8496
138      8.8889      8.8496      8.9286
139      8.9686      8.9286      9.0090
140      9.0498      9.0090      9.0909
141      9.1324      9.0909      9.1743
142      9.2166      9.1743      9.2593
143      9.3023      9.2593      9.3458
144      9.3897      9.3458      9.4340
145      9.4787      9.4340      9.5238
146      9.5694      9.5238      9.6154
147      9.6618      9.6154      9.7087
148      9.7561      9.7087      9.8039
149      9.8522      9.8039      9.9010
150      9.9502      9.9010     10.0000
151     10.0503     10.0000     10.1010
152     10.1523     10.1010     10.2041
153     10.2564     10.2041     10.3093
154     10.3627     10.3093     10.4167
155     10.4712     10.4167     10.5263
156     10.5820     10.5263     10.6383
157     10.6952     10.6383     10.7527
158     10.8108     10.7527     10.8696
159     10.9290     10.8696     10.9890
160     11.0497     10.9890     11.1111
161     11.1732     11.1111     11.2360
162     11.2994     11.2360     11.3636
163     11.4286     11.3636     11.4943
164     11.5607     11.4943     11.6279
165     11.6959     11.6279     11.7647
166     11.8343     11.7647     11.9048
167     11.9760     11.9048     12.0482
168     12.1212     12.0482     12.1951
169     12.2699     12.1951     12.3457
170     12.4224     12.3457     12.5000
171     12.5786     12.5000     12.6582
172     12.7389     12.6582     12.8205
173     12.9032     12.8205     12.9870
174     13.0719     12.9870     13.1579
175     13.2450     13.1579     13.3333
176     13.4228     13.3333     13.5135
177     13.6054     13.5135     13.6986
178     13.7931     13.6986     13.8889
179     13.9860     13.8889     14.0845
180     14.1844     14.0845     14.2857
181     14.3885     14.2857     14.4928
182     14.5985     14.4928     14.7059
183     14.8148     14.7059     14.9254
184     15.0376     14.9254     15.1515
185     15.2672     15.1515     15.3846
186     15.5039     15.3846     15.6250
187     15.7480     15.6250     15.8730
188     16.0000     15.8730     16.1290
189     16.2602     16.1290     16.3934
190     16.5289     16.3934     16.6667
191     16.8067     16.6667     16.9492
192     17.0940     16.9492     17.2414
193     17.3913     17.2414     17.5439
194     17.6991     17.5439     17.8571
195     18.0180     17.8571     18.1818
196     18.3486     18.1818     18.5185
197     18.6916     18.5185     18.8679
198     19.0476     18.8679     19.2308
199     19.4175     19.2308     19.6078
200     19.8020     19.6078     20.0000
201     20.2020     20.0000     20.4082
202     20.6186     20.4082     20.8333
203     21.0526     20.8333     21.2766
204     21.5054     21.2766     21.7391
205     21.9780     21.7391     22.2222
206     22.4719     22.2222     22.7273
207     22.9885     22.7273     23.2558
208     23.5294     23.2558     23.8095
209     24.0964     23.8095     24.3902
210     24.6914     24.3902     25.0000
211     25.3165     25.0000     25.6410
212     25.9740     25.6410     26.3158
213     26.6667     26.3158     27.0270
214     27.3973     27.0270     27.7778
215     28.1690     27.7778     28.5714
216     28.9855     28.5714     29.4118
217     29.8507     29.4118     30.3030
218     30.7692     30.3030     31.2500
219     31.7460     31.2500     32.2581
220     32.7869     32.2581     33.3333
221     33.8983     33.3333     34.4828
222     35.0877     34.4828     35.7143
223     36.3636     35.7143     37.0370
224     37.7358     37.0370     38.4615
225     39.2157     38.4615     40.0000
226     40.8163     40.0000     41.6667
227     42.5532     41.6667     43.4783
228     44.4444     43.4783     45.4545
229     46.5116     45.4545     47.6190
230     48.7805     47.6190     50.0000
231     51.2821     50.0000     52.6316
232     54.0541     52.6316     55.5556
233     57.1429     55.5556     58.8235
234     60.6061     58.8235     62.5000
235     64.5161     62.5000     66.6667
236     68.9655     66.6667     71.4286
237     74.0741     71.4286     76.9231
238     80.0000     76.9231     83.3333
239     86.9565     83.3333     90.9091
240     95.2381     90.9091    100.0000
241    105.2632    100.0000    111.1111
242    117.6471    111.1111    125.0000
243    133.3333    125.0000    142.8571
244    153.8462    142.8571    166.6667
245    181.8182    166.6667    200.0000
246    222.2222    200.0000    250.0000
247    285.7143    250.0000    333.3333
248    400.0000    333.3333    500.0000
249    666.6667    500.0000   1000.0000
#################################
#        PRESSURE 
# number of sampled pressure :
  23
# sampled pressures (mb) :
   0.01
   0.07
   0.25
   0.40
   0.63
   1.00
   1.58
   2.51
   3.98
   6.31
  10.00
  15.80
  25.10
  39.80
  63.10
 100.00
 158.00
 251.00
 398.00
 487.00
 631.00
 802.00
1050.00
#################################
#        TEMPERATURE 
# number of sampled temperature :
   7
# sampled tenperatures (K) :
 190.00
 191.00
 225.00
 260.00
 295.00
 329.00
 330.00
  
